File: data/02-SI/Figures_S9_S11_RDE/15btmapaq-rde/1mkcl-15btmapaq-nitrogen-4000mvpers.DTA
EXPLAIN
TAG	CV
TITLE	LABEL	Cyclic Voltammetry	Test &Identifier
DATE	LABEL	1/31/2023	Date
TIME	LABEL	18:21:35	Time
NOTES	NOTES	1	&Notes...

PSTAT	PSTAT	REF3000-21108	Potentiostat
VINIT	POTEN	5.00000E-001	F	Initial &E (V)
VLIMIT1	POTEN	-1.00000E+000	F	Scan Limit &1 (V)
VLIMIT2	POTEN	5.00000E-001	F	Scan Limit &2 (V)
VFINAL	POTEN	5.00000E-001	F	Final &E (V)
SCANRATE	QUANT	3.99999E+003	&Scan Rate (mV/s)
STEPSIZE	QUANT	1.00000E+000	St&ep Size (mV)
CYCLES	IQUANT	1	C&ycles (#)
IMODE	SELECTOR	1	I/E Range &Mode
IRANGE	QUANT	1.00000E+001	&Max Current (mA)
AREA	QUANT	1.00000E+000	Electrode &Area (cm^2)
ELECTRODETYPE	SELECTOR	0	Electrode Type
STRIPPING	TOGGLE	F	Used for Stripping
POLARITY	TOGGLE	F	Signal Polarity
CONDIT	TWOPARAM	F	1.50000E+001	0.00000E+000	Conditionin&g	Time(s)	E(V)
DELAY	TWOPARAM	F	5.00000E+000	0.00000E+000	Init. De&lay	Time(s)	Stab.(mV/s)
EQDELAY	QUANT	0.00000E+000	Equil. &Time (s)
IRCOMP	SELECTOR	0	IRCom&p
PFCOR	QUANT	5.00000E+001	PF Corr. (ohm)
SAMPLINGMODE	SELECTOR	1	Sampling &Mode
EOC	QUANT	0	Open Circuit (V)
PSTATMODEL	IQUANT	5	Pstat Model
PSTATSECTION	LABEL	REF3000-21108	Pstat Section
PSTATSERIALNO	LABEL	21108	Pstat Serial Number
CTRLMODE	IQUANT	1	Control Mode
ELECTROMETER	IQUANT	0	RE=0 or CS=1
IESTAB	IQUANT	2	I/E Stability
CASPEED	IQUANT	4	Control Amp Speed
CONVENTION	IQUANT	1	Current Convention
ICHRANGE	IQUANT	2	Ich Range
ICHRANGEMODE	TOGGLE	F	Ich Auto Range
ICHOFFSETENABLE	TOGGLE	F	Ich Offset Enable
ICHOFFSET	QUANT	0	Ich Offset (V)
ICHFILTER	IQUANT	1	Ich Filter
VCHRANGE	IQUANT	2	Vch Range
VCHRANGEMODE	TOGGLE	F	Vch Auto Range
VCHOFFSETENABLE	TOGGLE	F	Vch Offset Enable
VCHOFFSET	QUANT	0	Vch Offset (V)
VCHFILTER	IQUANT	1	Vch Filter
ACHRANGE	IQUANT	2	Ach Range
ACHOFFSETENABLE	TOGGLE	F	Ach Offset Enable
ACHOFFSET	QUANT	0	Ach Offset (V)
ACHFILTER	IQUANT	0	Ach Filter
IERANGELOWERLIMIT	IQUANT	2	I/E Range Lower Limit
IERANGEMODE	TOGGLE	F	I/E AutoRange
IERANGE	IQUANT	10	I/E Range
POSFEEDENABLE	TOGGLE	F	Positive Feedback IR Comp
POSFEEDRESISTANCE	QUANT	0	Positive Feedback Resistance (ohm)
ACHSELECT	IQUANT	0	Ach Select
SENSECABLEID	IQUANT	14	Sense Cable ID
PWRCABLEID	IQUANT	7	Power Cable ID
DCCALDATE	LABEL	11/9/2022	DC Calibration Date
ACCALDATE	LABEL	11/9/2022	AC Calibration Date
THERMOSELECT	IQUANT	1	Thermo Select
FRAMEWORKVERSION	LABEL	7.8.2	Framework Version
INSTRUMENTVERSION	LABEL	4.40	Instrument Version
COMPLIANCEVOLTAGE	IQUANT	0	Compliance Voltage
CURVE1	TABLE
	Pt	T	Vf	Im	Vu	Sig	Ach	IERange	Over	Temp
	#	s	V vs. Ref.	A	V	V	V	#	bits	deg C
	0	0.00025	4.98624E-001	5.38544E-005	0.00000E+000	5.00000E-001	-1.07927E-003	10	..........a	-327.74
	32	0.00825	4.66791E-001	2.21056E-005	0.00000E+000	4.68000E-001	-8.29272E-004	10	..........a	-327.74
	64	0.01625	4.34658E-001	1.50874E-005	0.00000E+000	4.36000E-001	-1.22927E-003	10	..........a	-327.74
	96	0.02425	4.02691E-001	7.73505E-006	0.00000E+000	4.04000E-001	-9.29272E-004	10	..........a	-327.74
	128	0.03225	3.70891E-001	7.16888E-007	0.00000E+000	3.72000E-001	-6.79272E-004	10	..........a	-327.74
	160	0.04025	3.38791E-001	-2.29089E-006	0.00000E+000	3.40000E-001	-6.79272E-004	10	..........a	-327.74
	192	0.04825	3.06891E-001	-6.63547E-006	0.00000E+000	3.08000E-001	-6.29272E-004	10	..........a	-327.74
	224	0.05625	2.74924E-001	-8.64066E-006	0.00000E+000	2.76000E-001	-5.79272E-004	10	..........a	-327.74
	256	0.06425	2.42791E-001	-1.03116E-005	0.00000E+000	2.44000E-001	-6.29272E-004	10	..........a	-327.74
	288	0.07225	2.10891E-001	-1.23168E-005	0.00000E+000	2.12000E-001	-9.29272E-004	10	..........a	-327.74
	320	0.08025	1.78891E-001	-1.39878E-005	0.00000E+000	1.80000E-001	-8.29272E-004	10	..........a	-327.74
	352	0.08825	1.46924E-001	-1.76640E-005	0.00000E+000	1.48000E-001	-4.29272E-004	10	..........a	-327.74
	384	0.09625	1.14958E-001	-2.10060E-005	0.00000E+000	1.16000E-001	-6.29272E-004	10	..........a	-327.74
	416	0.10425	8.30243E-002	-2.16744E-005	0.00000E+000	8.40000E-002	-5.79272E-004	10	..........a	-327.74
	448	0.11225	5.07577E-002	-1.96692E-005	0.00000E+000	5.20000E-002	-7.79272E-004	10	..........a	-327.74
	480	0.12025	1.89577E-002	-2.20086E-005	0.00000E+000	2.00000E-002	-6.79272E-004	10	..........a	-327.74
	512	0.12825	-1.30090E-002	-2.36796E-005	0.00000E+000	-1.20000E-002	-7.29272E-004	10	..........a	-327.74
	544	0.13625	-4.52757E-002	-2.06718E-005	0.00000E+000	-4.40000E-002	-1.32927E-003	10	..........a	-327.74
	576	0.14425	-7.73090E-002	-2.30112E-005	0.00000E+000	-7.60000E-002	-1.17927E-003	10	..........a	-327.74
	608	0.15225	-1.09042E-001	-2.50164E-005	0.00000E+000	-1.08000E-001	-7.79272E-004	10	..........a	-327.74
	640	0.16025	-1.41109E-001	-2.73557E-005	0.00000E+000	-1.40000E-001	-9.29272E-004	10	..........a	-327.74
	672	0.16825	-1.72942E-001	-3.13661E-005	0.00000E+000	-1.72000E-001	-8.29272E-004	10	..........a	-327.74
	704	0.17625	-2.05009E-001	-3.03635E-005	0.00000E+000	-2.04000E-001	-7.79272E-004	10	..........a	-327.74
	736	0.18425	-2.37042E-001	-4.00553E-005	0.00000E+000	-2.36000E-001	-6.29272E-004	10	..........a	-327.74
	768	0.19225	-2.68942E-001	-3.87185E-005	0.00000E+000	-2.68000E-001	-9.79272E-004	10	..........a	-327.74
	800	0.20025	-3.01009E-001	-4.90786E-005	0.00000E+000	-3.00000E-001	-1.22927E-003	10	..........a	-327.74
	832	0.20825	-3.33076E-001	-5.10838E-005	0.00000E+000	-3.32000E-001	-1.12927E-003	10	..........a	-327.74
	864	0.21625	-3.64909E-001	-6.04413E-005	0.00000E+000	-3.64000E-001	-6.79272E-004	10	..........a	-327.74
	896	0.22425	-3.96876E-001	-7.91564E-005	0.00000E+000	-3.96000E-001	-6.29272E-004	10	..........a	-327.74
	928	0.23225	-4.28809E-001	-1.24607E-004	0.00000E+000	-4.28000E-001	-7.29272E-004	10	..........a	-327.74
	960	0.24025	-4.60876E-001	-2.13838E-004	0.00000E+000	-4.60000E-001	-8.79272E-004	10	..........a	-327.74
	992	0.24825	-4.92942E-001	-3.14098E-004	0.00000E+000	-4.92000E-001	-5.79272E-004	10	..........a	-327.74
	1024	0.25625	-5.24842E-001	-4.46774E-004	0.00000E+000	-5.24000E-001	-1.32927E-003	10	..........a	-327.74
	1056	0.26425	-5.56576E-001	-7.00765E-004	0.00000E+000	-5.56000E-001	-3.79272E-004	10	..........a	-327.74
	1088	0.27225	-5.88776E-001	-9.47403E-004	0.00000E+000	-5.88000E-001	-1.02927E-003	10	..........a	-327.74
	1120	0.28025	-6.20609E-001	-1.02193E-003	0.00000E+000	-6.20000E-001	-3.29272E-004	10	..........a	-327.74
	1152	0.28825	-6.52976E-001	-9.59768E-004	0.00000E+000	-6.52000E-001	-1.32927E-003	10	..........a	-327.74
	1184	0.29625	-6.84876E-001	-8.67864E-004	0.00000E+000	-6.84000E-001	-1.02927E-003	10	..........a	-327.74
	1216	0.30425	-7.16809E-001	-7.92669E-004	0.00000E+000	-7.16000E-001	-5.79272E-004	10	..........a	-327.74
	1248	0.31225	-7.48842E-001	-7.32179E-004	0.00000E+000	-7.48000E-001	-7.79272E-004	10	..........a	-327.74
	1280	0.32025	-7.80809E-001	-6.79376E-004	0.00000E+000	-7.80000E-001	-8.29272E-004	10	..........a	-327.74
	1312	0.32825	-8.12876E-001	-6.33925E-004	0.00000E+000	-8.12000E-001	-9.29272E-004	10	..........a	-327.74
	1344	0.33625	-8.44609E-001	-6.01508E-004	0.00000E+000	-8.44000E-001	-9.29272E-004	10	..........a	-327.74
	1376	0.34425	-8.76609E-001	-5.72767E-004	0.00000E+000	-8.76000E-001	-1.02927E-003	10	..........a	-327.74
	1408	0.35225	-9.08709E-001	-5.47368E-004	0.00000E+000	-9.08000E-001	-1.07927E-003	10	..........a	-327.74
	1440	0.36025	-9.40609E-001	-5.25979E-004	0.00000E+000	-9.40000E-001	-9.29272E-004	10	..........a	-327.74
	1472	0.36825	-9.72509E-001	-5.06930E-004	0.00000E+000	-9.72000E-001	-7.29272E-004	10	..........a	-327.74
	1504	0.37625	-9.96842E-001	-4.58471E-004	0.00000E+000	-9.96000E-001	-1.27927E-003	10	..........a	-327.74
	1536	0.38425	-9.64642E-001	-3.76593E-004	0.00000E+000	-9.64000E-001	-4.29272E-004	10	..........a	-327.74
	1568	0.39225	-9.32742E-001	-3.37157E-004	0.00000E+000	-9.32000E-001	-8.29272E-004	10	..........a	-327.74
	1600	0.40025	-9.00976E-001	-3.12761E-004	0.00000E+000	-9.00000E-001	-1.32927E-003	10	..........a	-327.74
	1632	0.40825	-8.68509E-001	-2.93712E-004	0.00000E+000	-8.68000E-001	-3.79272E-004	10	..........a	-327.74
	1664	0.41625	-8.36676E-001	-2.73660E-004	0.00000E+000	-8.36000E-001	-9.79272E-004	10	..........a	-327.74
	1696	0.42425	-8.04742E-001	-2.61629E-004	0.00000E+000	-8.04000E-001	-7.29272E-004	10	..........a	-327.74
	1728	0.43225	-7.72776E-001	-2.45921E-004	0.00000E+000	-7.72000E-001	-9.79272E-004	10	..........a	-327.74
	1760	0.44025	-7.40809E-001	-2.28877E-004	0.00000E+000	-7.40000E-001	-9.29272E-004	10	..........a	-327.74
	1792	0.44825	-7.08609E-001	-2.13838E-004	0.00000E+000	-7.08000E-001	-6.79272E-004	10	..........a	-327.74
	1824	0.45625	-6.76842E-001	-1.88439E-004	0.00000E+000	-6.76000E-001	-9.79272E-004	10	..........a	-327.74
	1856	0.46425	-6.44942E-001	-1.54017E-004	0.00000E+000	-6.44000E-001	-1.27927E-003	10	..........a	-327.74
	1888	0.47225	-6.12809E-001	-9.41953E-005	0.00000E+000	-6.12000E-001	-8.29272E-004	10	..........a	-327.74
	1920	0.48025	-5.81009E-001	2.72208E-006	0.00000E+000	-5.80000E-001	-1.12927E-003	10	..........a	-327.74
	1952	0.48825	-5.48642E-001	1.05655E-004	0.00000E+000	-5.48000E-001	-4.29272E-004	10	..........a	-327.74
	1984	0.49625	-5.17076E-001	2.17946E-004	0.00000E+000	-5.16000E-001	-8.29272E-004	10	..........a	-327.74
	2016	0.50425	-4.84642E-001	3.22215E-004	0.00000E+000	-4.84000E-001	-1.29272E-004	10	..........a	-327.74
	2048	0.51225	-4.52942E-001	4.10444E-004	0.00000E+000	-4.52000E-001	-9.29272E-004	10	..........a	-327.74
	2080	0.52025	-4.21042E-001	4.37848E-004	0.00000E+000	-4.20000E-001	-6.79272E-004	10	..........a	-327.74
	2112	0.52825	-3.88842E-001	4.23477E-004	0.00000E+000	-3.88000E-001	-6.79272E-004	10	..........a	-327.74
	2144	0.53625	-3.56942E-001	3.98747E-004	0.00000E+000	-3.56000E-001	-1.02927E-003	10	..........a	-327.74
	2176	0.54425	-3.24942E-001	3.83708E-004	0.00000E+000	-3.24000E-001	-7.79272E-004	10	..........a	-327.74
	2208	0.55225	-2.92976E-001	3.68335E-004	0.00000E+000	-2.92000E-001	-1.02927E-003	10	..........a	-327.74
	2240	0.56025	-2.61209E-001	3.58309E-004	0.00000E+000	-2.60000E-001	-1.27927E-003	10	..........a	-327.74
	2272	0.56825	-2.29009E-001	3.46278E-004	0.00000E+000	-2.28000E-001	-8.79272E-004	10	..........a	-327.74
	2304	0.57625	-1.96876E-001	3.31239E-004	0.00000E+000	-1.96000E-001	-4.29272E-004	10	..........a	-327.74
	2336	0.58425	-1.65009E-001	3.11521E-004	0.00000E+000	-1.64000E-001	-7.79272E-004	10	..........a	-327.74
	2368	0.59225	-1.32976E-001	2.91135E-004	0.00000E+000	-1.32000E-001	-1.02927E-003	10	..........a	-327.74
	2400	0.60025	-1.00909E-001	2.75093E-004	0.00000E+000	-1.00000E-001	-4.79272E-004	10	..........a	-327.74
	2432	0.60825	-6.92090E-002	2.60723E-004	0.00000E+000	-6.80000E-002	-1.12927E-003	10	..........a	-327.74
	2464	0.61625	-3.69757E-002	2.47021E-004	0.00000E+000	-3.60000E-002	-7.29272E-004	10	..........a	-327.74
	2496	0.62425	-5.10900E-003	2.40337E-004	0.00000E+000	-4.00001E-003	-7.29272E-004	10	..........a	-327.74
	2528	0.63225	2.67910E-002	2.36995E-004	0.00000E+000	2.80000E-002	-1.02927E-003	10	..........a	-327.74
	2560	0.64025	5.88910E-002	2.34321E-004	0.00000E+000	6.00000E-002	-7.79272E-004	10	..........a	-327.74
	2592	0.64825	9.09577E-002	2.31982E-004	0.00000E+000	9.20000E-002	-5.29272E-004	10	..........a	-327.74
	2624	0.65625	1.22791E-001	2.33987E-004	0.00000E+000	1.24000E-001	-8.79272E-004	10	..........a	-327.74
	2656	0.66425	1.54991E-001	2.35324E-004	0.00000E+000	1.56000E-001	-2.29272E-004	10	..........a	-327.74
	2688	0.67225	1.87091E-001	2.39000E-004	0.00000E+000	1.88000E-001	-5.79272E-004	10	..........a	-327.74
	2720	0.68025	2.18791E-001	2.40337E-004	0.00000E+000	2.20000E-001	-8.29272E-004	10	..........a	-327.74
	2752	0.68825	2.50891E-001	2.32316E-004	0.00000E+000	2.52000E-001	-1.07927E-003	10	..........a	-327.74
	2784	0.69625	2.82858E-001	2.23293E-004	0.00000E+000	2.84000E-001	-7.79272E-004	10	..........a	-327.74
	2816	0.70425	3.14824E-001	2.12598E-004	0.00000E+000	3.16000E-001	-8.29272E-004	10	..........a	-327.74
	2848	0.71225	3.46824E-001	2.02907E-004	0.00000E+000	3.48000E-001	-8.29272E-004	10	..........a	-327.74
	2880	0.72025	3.78758E-001	1.94552E-004	0.00000E+000	3.80000E-001	-7.29272E-004	10	..........a	-327.74
	2912	0.72825	4.10691E-001	1.88202E-004	0.00000E+000	4.12000E-001	-1.02927E-003	10	..........a	-327.74
	2944	0.73625	4.42791E-001	1.80515E-004	0.00000E+000	4.44000E-001	-8.79272E-004	10	..........a	-327.74
	2976	0.74425	4.74758E-001	1.76505E-004	0.00000E+000	4.76000E-001	-5.79272E-004	10	..........a	-327.74
	3000	0.75025	4.98724E-001	1.68818E-004	0.00000E+000	5.00000E-001	-7.79272E-004	10	..........a	-327.74
CURVE2	TABLE
	Pt	T	Vf	Im	Vu	Sig	Ach	IERange	Over	Temp
	#	s	V vs. Ref.	A	V	V	V	#	bits	deg C
	3001	0.7505	4.98591E-001	1.67482E-004	0.00000E+000	5.00000E-001	-1.12927E-003	10	..........a	-327.74