File: data/02-SI/Figures_S9_S11_RDE/15btmapaq-rde/1mkcl-15btmapaq-nitrogen-700mvpers.DTA
EXPLAIN
TAG	CV
TITLE	LABEL	Cyclic Voltammetry	Test &Identifier
DATE	LABEL	1/31/2023	Date
TIME	LABEL	18:19:24	Time
NOTES	NOTES	1	&Notes...

PSTAT	PSTAT	REF3000-21108	Potentiostat
VINIT	POTEN	5.00000E-001	F	Initial &E (V)
VLIMIT1	POTEN	-1.00000E+000	F	Scan Limit &1 (V)
VLIMIT2	POTEN	5.00000E-001	F	Scan Limit &2 (V)
VFINAL	POTEN	5.00000E-001	F	Final &E (V)
SCANRATE	QUANT	6.97673E+002	&Scan Rate (mV/s)
STEPSIZE	QUANT	1.00000E+000	St&ep Size (mV)
CYCLES	IQUANT	1	C&ycles (#)
IMODE	SELECTOR	1	I/E Range &Mode
IRANGE	QUANT	1.00000E+001	&Max Current (mA)
AREA	QUANT	1.00000E+000	Electrode &Area (cm^2)
ELECTRODETYPE	SELECTOR	0	Electrode Type
STRIPPING	TOGGLE	F	Used for Stripping
POLARITY	TOGGLE	F	Signal Polarity
CONDIT	TWOPARAM	F	1.50000E+001	0.00000E+000	Conditionin&g	Time(s)	E(V)
DELAY	TWOPARAM	F	5.00000E+000	0.00000E+000	Init. De&lay	Time(s)	Stab.(mV/s)
EQDELAY	QUANT	0.00000E+000	Equil. &Time (s)
IRCOMP	SELECTOR	0	IRCom&p
PFCOR	QUANT	5.00000E+001	PF Corr. (ohm)
SAMPLINGMODE	SELECTOR	1	Sampling &Mode
EOC	QUANT	0	Open Circuit (V)
PSTATMODEL	IQUANT	5	Pstat Model
PSTATSECTION	LABEL	REF3000-21108	Pstat Section
PSTATSERIALNO	LABEL	21108	Pstat Serial Number
CTRLMODE	IQUANT	1	Control Mode
ELECTROMETER	IQUANT	0	RE=0 or CS=1
IESTAB	IQUANT	2	I/E Stability
CASPEED	IQUANT	4	Control Amp Speed
CONVENTION	IQUANT	1	Current Convention
ICHRANGE	IQUANT	2	Ich Range
ICHRANGEMODE	TOGGLE	F	Ich Auto Range
ICHOFFSETENABLE	TOGGLE	F	Ich Offset Enable
ICHOFFSET	QUANT	0	Ich Offset (V)
ICHFILTER	IQUANT	1	Ich Filter
VCHRANGE	IQUANT	2	Vch Range
VCHRANGEMODE	TOGGLE	F	Vch Auto Range
VCHOFFSETENABLE	TOGGLE	F	Vch Offset Enable
VCHOFFSET	QUANT	0	Vch Offset (V)
VCHFILTER	IQUANT	1	Vch Filter
ACHRANGE	IQUANT	2	Ach Range
ACHOFFSETENABLE	TOGGLE	F	Ach Offset Enable
ACHOFFSET	QUANT	0	Ach Offset (V)
ACHFILTER	IQUANT	0	Ach Filter
IERANGELOWERLIMIT	IQUANT	2	I/E Range Lower Limit
IERANGEMODE	TOGGLE	F	I/E AutoRange
IERANGE	IQUANT	10	I/E Range
POSFEEDENABLE	TOGGLE	F	Positive Feedback IR Comp
POSFEEDRESISTANCE	QUANT	0	Positive Feedback Resistance (ohm)
ACHSELECT	IQUANT	0	Ach Select
SENSECABLEID	IQUANT	14	Sense Cable ID
PWRCABLEID	IQUANT	7	Power Cable ID
DCCALDATE	LABEL	11/9/2022	DC Calibration Date
ACCALDATE	LABEL	11/9/2022	AC Calibration Date
THERMOSELECT	IQUANT	1	Thermo Select
FRAMEWORKVERSION	LABEL	7.8.2	Framework Version
INSTRUMENTVERSION	LABEL	4.40	Instrument Version
COMPLIANCEVOLTAGE	IQUANT	0	Compliance Voltage
CURVE1	TABLE
	Pt	T	Vf	Im	Vu	Sig	Ach	IERange	Over	Temp
	#	s	V vs. Ref.	A	V	V	V	#	bits	deg C
	0	0.001433	4.98691E-001	6.78710E-005	0.00000E+000	5.00000E-001	-8.07050E-004	10	..........a	-327.74
	32	0.0473	4.66650E-001	4.16856E-005	0.00000E+000	4.67900E-001	-8.62605E-004	10	..........a	-327.74
	64	0.093167	4.34585E-001	3.03032E-005	0.00000E+000	4.35800E-001	-8.40383E-004	10	..........a	-327.74
	96	0.139033	4.02497E-001	2.47595E-005	0.00000E+000	4.03700E-001	-8.07050E-004	10	..........a	-327.74
	128	0.1849	3.70267E-001	1.99234E-005	0.00000E+000	3.71550E-001	-8.51494E-004	10	..........a	-327.74
	160	0.230767	3.38244E-001	1.66208E-005	0.00000E+000	3.39450E-001	-8.62605E-004	10	..........a	-327.74
	192	0.276633	3.06132E-001	1.34950E-005	0.00000E+000	3.07350E-001	-8.51494E-004	10	..........a	-327.74
	224	0.3225	2.74073E-001	1.09591E-005	0.00000E+000	2.75250E-001	-7.84828E-004	10	..........a	-327.74
	256	0.368367	2.42009E-001	8.18720E-006	0.00000E+000	2.43150E-001	-7.84828E-004	10	..........a	-327.74
	288	0.414233	2.09832E-001	5.59225E-006	0.00000E+000	2.11050E-001	-8.18161E-004	10	..........a	-327.74
	320	0.4601	1.77832E-001	1.93573E-006	0.00000E+000	1.78950E-001	-7.73717E-004	10	..........a	-327.74
	352	0.505967	1.45803E-001	-1.28436E-007	0.00000E+000	1.46850E-001	-8.40383E-004	10	..........a	-327.74
	384	0.551833	1.13585E-001	-2.01567E-006	0.00000E+000	1.14700E-001	-7.95939E-004	10	..........a	-327.74
	416	0.5977	8.14204E-002	-3.60803E-006	0.00000E+000	8.26000E-002	-7.95939E-004	10	..........a	-327.74
	448	0.643567	4.93851E-002	-4.55165E-006	0.00000E+000	5.05000E-002	-8.07050E-004	10	..........a	-327.74
	480	0.689433	1.72851E-002	-6.32093E-006	0.00000E+000	1.84000E-002	-7.62605E-004	10	..........a	-327.74
	512	0.7353	-1.48090E-002	-6.02605E-006	0.00000E+000	-1.37000E-002	-8.18161E-004	10	..........a	-327.74
	544	0.781167	-4.69266E-002	-6.73376E-006	0.00000E+000	-4.58000E-002	-7.40383E-004	10	..........a	-327.74
	576	0.827033	-7.89031E-002	-6.43888E-006	0.00000E+000	-7.79000E-002	-8.07050E-004	10	..........a	-327.74
	608	0.8729	-1.11133E-001	-9.15178E-006	0.00000E+000	-1.10050E-001	-7.62605E-004	10	..........a	-327.74
	640	0.918767	-1.43191E-001	-7.32352E-006	0.00000E+000	-1.42150E-001	-8.29272E-004	10	..........a	-327.74
	672	0.96463	-1.75362E-001	-1.12159E-005	0.00000E+000	-1.74250E-001	-8.07050E-004	10	..........a	-327.74
	704	1.0105	-2.07362E-001	-1.15698E-005	0.00000E+000	-2.06350E-001	-7.84828E-004	10	..........a	-327.74
	736	1.05637	-2.39456E-001	-1.36929E-005	0.00000E+000	-2.38450E-001	-8.18161E-004	10	..........a	-327.74
	768	1.10223	-2.71550E-001	-1.46366E-005	0.00000E+000	-2.70550E-001	-7.62605E-004	10	..........a	-327.74
	800	1.1481	-3.03627E-001	-1.77623E-005	0.00000E+000	-3.02650E-001	-7.73717E-004	10	..........a	-327.74
	832	1.19397	-3.35732E-001	-1.91187E-005	0.00000E+000	-3.34750E-001	-7.73717E-004	10	..........a	-327.74
	864	1.23983	-3.67774E-001	-2.42497E-005	0.00000E+000	-3.66900E-001	-7.95939E-004	10	..........a	-327.74
	896	1.2857	-3.99891E-001	-3.56910E-005	0.00000E+000	-3.99000E-001	-7.40383E-004	10	..........a	-327.74
	928	1.33157	-4.31985E-001	-6.47663E-005	0.00000E+000	-4.31100E-001	-8.18161E-004	10	..........a	-327.74
	960	1.37743	-4.64174E-001	-1.07170E-004	0.00000E+000	-4.63200E-001	-7.95939E-004	10	..........a	-327.74
	992	1.4233	-4.96256E-001	-1.52051E-004	0.00000E+000	-4.95300E-001	-8.84828E-004	10	..........a	-327.74
	1024	1.46917	-5.28332E-001	-2.26479E-004	0.00000E+000	-5.27400E-001	-8.29272E-004	10	..........a	-327.74
	1056	1.51503	-5.60432E-001	-3.43193E-004	0.00000E+000	-5.59500E-001	-8.07050E-004	10	..........a	-327.74
	1088	1.5609	-5.92544E-001	-4.09482E-004	0.00000E+000	-5.91650E-001	-7.84828E-004	10	..........a	-327.74
	1120	1.60677	-6.24550E-001	-3.92850E-004	0.00000E+000	-6.23750E-001	-7.73717E-004	10	..........a	-327.74
	1152	1.65263	-6.56709E-001	-3.46023E-004	0.00000E+000	-6.55850E-001	-8.07050E-004	10	..........a	-327.74
	1184	1.6985	-6.88756E-001	-3.06745E-004	0.00000E+000	-6.87950E-001	-7.29272E-004	10	..........a	-327.74
	1216	1.74437	-7.20868E-001	-2.78909E-004	0.00000E+000	-7.20050E-001	-7.62605E-004	10	..........a	-327.74
	1248	1.79023	-7.52980E-001	-2.56734E-004	0.00000E+000	-7.52150E-001	-7.18161E-004	10	..........a	-327.74
	1280	1.8361	-7.85056E-001	-2.40102E-004	0.00000E+000	-7.84250E-001	-7.95939E-004	10	..........a	-327.74
	1312	1.88197	-8.17185E-001	-2.27540E-004	0.00000E+000	-8.16350E-001	-8.29272E-004	10	..........a	-327.74
	1344	1.92783	-8.49232E-001	-2.16512E-004	0.00000E+000	-8.48500E-001	-7.95939E-004	10	..........a	-327.74
	1376	1.9737	-8.81297E-001	-2.06604E-004	0.00000E+000	-8.80600E-001	-7.51494E-004	10	..........a	-327.74
	1408	2.01957	-9.13397E-001	-1.98465E-004	0.00000E+000	-9.12700E-001	-7.40383E-004	10	..........a	-327.74
	1440	2.06543	-9.45421E-001	-1.91270E-004	0.00000E+000	-9.44800E-001	-8.29272E-004	10	..........a	-327.74
	1472	2.1113	-9.77532E-001	-1.85490E-004	0.00000E+000	-9.76900E-001	-7.84828E-004	10	..........a	-327.74
	1504	2.15717	-9.91697E-001	-1.69626E-004	0.00000E+000	-9.90950E-001	-7.73717E-004	10	..........a	-327.74
	1536	2.20303	-9.59568E-001	-1.54646E-004	0.00000E+000	-9.58850E-001	-7.40383E-004	10	..........a	-327.74
	1568	2.2489	-9.27521E-001	-1.45564E-004	0.00000E+000	-9.26750E-001	-7.73717E-004	10	..........a	-327.74
	1600	2.29477	-8.95462E-001	-1.39430E-004	0.00000E+000	-8.94650E-001	-8.18161E-004	10	..........a	-327.74
	1632	2.34063	-8.63309E-001	-1.33886E-004	0.00000E+000	-8.62550E-001	-7.40383E-004	10	..........a	-327.74
	1664	2.3865	-8.31074E-001	-1.28284E-004	0.00000E+000	-8.30400E-001	-8.07050E-004	10	..........a	-327.74
	1696	2.43237	-7.99097E-001	-1.22799E-004	0.00000E+000	-7.98300E-001	-7.73717E-004	10	..........a	-327.74
	1728	2.47823	-7.66997E-001	-1.19201E-004	0.00000E+000	-7.66200E-001	-7.84828E-004	10	..........a	-327.74
	1760	2.5241	-7.34897E-001	-1.14778E-004	0.00000E+000	-7.34100E-001	-8.18161E-004	10	..........a	-327.74
	1792	2.56997	-7.02827E-001	-1.10060E-004	0.00000E+000	-7.02000E-001	-8.07050E-004	10	..........a	-327.74
	1824	2.61583	-6.70774E-001	-1.02098E-004	0.00000E+000	-6.69900E-001	-8.40383E-004	10	..........a	-327.74
	1856	2.6617	-6.38680E-001	-8.95362E-005	0.00000E+000	-6.37800E-001	-7.73717E-004	10	..........a	-327.74
	1888	2.70757	-6.06580E-001	-6.71253E-005	0.00000E+000	-6.05650E-001	-8.07050E-004	10	..........a	-327.74
	1920	2.75343	-5.74380E-001	-2.41317E-005	0.00000E+000	-5.73550E-001	-8.40383E-004	10	..........a	-327.74
	1952	2.7993	-5.42238E-001	4.09779E-005	0.00000E+000	-5.41450E-001	-8.29272E-004	10	..........a	-327.74
	1984	2.84517	-5.10209E-001	1.07326E-004	0.00000E+000	-5.09350E-001	-7.84828E-004	10	..........a	-327.74
	2016	2.89103	-4.78191E-001	1.64002E-004	0.00000E+000	-4.77250E-001	-7.95939E-004	10	..........a	-327.74
	2048	2.9369	-4.46115E-001	1.92252E-004	0.00000E+000	-4.45150E-001	-7.95939E-004	10	..........a	-327.74
	2080	2.98277	-4.14003E-001	1.89126E-004	0.00000E+000	-4.13050E-001	-8.29272E-004	10	..........a	-327.74
	2112	3.02863	-3.81921E-001	1.72082E-004	0.00000E+000	-3.80950E-001	-7.51494E-004	10	..........a	-327.74
	2144	3.0745	-3.49768E-001	1.55686E-004	0.00000E+000	-3.48800E-001	-7.84828E-004	10	..........a	-327.74
	2176	3.12037	-3.17756E-001	1.45130E-004	0.00000E+000	-3.16700E-001	-8.18161E-004	10	..........a	-327.74
	2208	3.16623	-2.85574E-001	1.37109E-004	0.00000E+000	-2.84600E-001	-8.29272E-004	10	..........a	-327.74
	2240	3.2121	-2.53503E-001	1.29442E-004	0.00000E+000	-2.52500E-001	-8.29272E-004	10	..........a	-327.74
	2272	3.25797	-2.21438E-001	1.21834E-004	0.00000E+000	-2.20400E-001	-8.40383E-004	10	..........a	-327.74
	2304	3.30383	-1.89262E-001	1.13401E-004	0.00000E+000	-1.88300E-001	-7.95939E-004	10	..........a	-327.74
	2336	3.3497	-1.57221E-001	1.04554E-004	0.00000E+000	-1.56200E-001	-7.84828E-004	10	..........a	-327.74
	2368	3.39557	-1.25138E-001	9.76540E-005	0.00000E+000	-1.24050E-001	-7.84828E-004	10	..........a	-327.74
	2400	3.44143	-9.30619E-002	9.08127E-005	0.00000E+000	-9.19500E-002	-7.95939E-004	10	..........a	-327.74
	2432	3.4873	-6.09384E-002	8.60357E-005	0.00000E+000	-5.98500E-002	-8.07050E-004	10	..........a	-327.74
	2464	3.53317	-2.87972E-002	8.15535E-005	0.00000E+000	-2.77500E-002	-8.40383E-004	10	..........a	-327.74
	2496	3.57903	3.36747E-003	7.88406E-005	0.00000E+000	4.35001E-003	-8.07050E-004	10	..........a	-327.74
	2528	3.6249	3.53969E-002	7.72482E-005	0.00000E+000	3.64500E-002	-7.95939E-004	10	..........a	-327.74
	2560	3.67077	6.74616E-002	7.57148E-005	0.00000E+000	6.85500E-002	-8.51494E-004	10	..........a	-327.74
	2592	3.71663	9.94969E-002	7.44763E-005	0.00000E+000	1.00650E-001	-7.73717E-004	10	..........a	-327.74
	2624	3.7625	1.31632E-001	7.32968E-005	0.00000E+000	1.32800E-001	-8.40383E-004	10	..........a	-327.74
	2656	3.80837	1.63750E-001	7.44174E-005	0.00000E+000	1.64900E-001	-8.07050E-004	10	..........a	-327.74
	2688	3.85423	1.95803E-001	7.65405E-005	0.00000E+000	1.97000E-001	-8.07050E-004	10	..........a	-327.74
	2720	3.9001	2.27885E-001	7.63046E-005	0.00000E+000	2.29100E-001	-8.29272E-004	10	..........a	-327.74
	2752	3.94597	2.59956E-001	7.37686E-005	0.00000E+000	2.61200E-001	-7.73717E-004	10	..........a	-327.74
	2784	3.99183	2.92120E-001	6.98172E-005	0.00000E+000	2.93300E-001	-7.95939E-004	10	..........a	-327.74
	2816	4.0377	3.24197E-001	6.69864E-005	0.00000E+000	3.25400E-001	-7.84828E-004	10	..........a	-327.74
	2848	4.08357	3.56344E-001	6.36837E-005	0.00000E+000	3.57550E-001	-8.62605E-004	10	..........a	-327.74
	2880	4.12943	3.88420E-001	5.98503E-005	0.00000E+000	3.89650E-001	-8.07050E-004	10	..........a	-327.74
	2912	4.1753	4.20444E-001	5.80810E-005	0.00000E+000	4.21750E-001	-8.18161E-004	10	..........a	-327.74
	2944	4.22117	4.52626E-001	5.51912E-005	0.00000E+000	4.53850E-001	-8.07050E-004	10	..........a	-327.74
	2976	4.26703	4.84679E-001	5.43065E-005	0.00000E+000	4.85950E-001	-8.29272E-004	10	..........a	-327.74
	2990	4.2871	4.98715E-001	5.40116E-005	0.00000E+000	5.00000E-001	-8.40383E-004	10	..........a	-327.74
CURVE2	TABLE
	Pt	T	Vf	Im	Vu	Sig	Ach	IERange	Over	Temp
	#	s	V vs. Ref.	A	V	V	V	#	bits	deg C
	2991	4.28853	4.98703E-001	5.23013E-005	0.00000E+000	5.00000E-001	-8.18161E-004	10	..........a	-327.74