File: data/02-SI/Figures_S9_S11_RDE/15btmapaq-rde/1mkcl-15btmapaq-nitrogen-5000mvpers.DTA
EXPLAIN
TAG	CV
TITLE	LABEL	Cyclic Voltammetry	Test &Identifier
DATE	LABEL	1/31/2023	Date
TIME	LABEL	18:21:46	Time
NOTES	NOTES	1	&Notes...

PSTAT	PSTAT	REF3000-21108	Potentiostat
VINIT	POTEN	5.00000E-001	F	Initial &E (V)
VLIMIT1	POTEN	-1.00000E+000	F	Scan Limit &1 (V)
VLIMIT2	POTEN	5.00000E-001	F	Scan Limit &2 (V)
VFINAL	POTEN	5.00000E-001	F	Final &E (V)
SCANRATE	QUANT	4.99999E+003	&Scan Rate (mV/s)
STEPSIZE	QUANT	1.00000E+000	St&ep Size (mV)
CYCLES	IQUANT	1	C&ycles (#)
IMODE	SELECTOR	1	I/E Range &Mode
IRANGE	QUANT	1.00000E+001	&Max Current (mA)
AREA	QUANT	1.00000E+000	Electrode &Area (cm^2)
ELECTRODETYPE	SELECTOR	0	Electrode Type
STRIPPING	TOGGLE	F	Used for Stripping
POLARITY	TOGGLE	F	Signal Polarity
CONDIT	TWOPARAM	F	1.50000E+001	0.00000E+000	Conditionin&g	Time(s)	E(V)
DELAY	TWOPARAM	F	5.00000E+000	0.00000E+000	Init. De&lay	Time(s)	Stab.(mV/s)
EQDELAY	QUANT	0.00000E+000	Equil. &Time (s)
IRCOMP	SELECTOR	0	IRCom&p
PFCOR	QUANT	5.00000E+001	PF Corr. (ohm)
SAMPLINGMODE	SELECTOR	1	Sampling &Mode
EOC	QUANT	0	Open Circuit (V)
PSTATMODEL	IQUANT	5	Pstat Model
PSTATSECTION	LABEL	REF3000-21108	Pstat Section
PSTATSERIALNO	LABEL	21108	Pstat Serial Number
CTRLMODE	IQUANT	1	Control Mode
ELECTROMETER	IQUANT	0	RE=0 or CS=1
IESTAB	IQUANT	2	I/E Stability
CASPEED	IQUANT	4	Control Amp Speed
CONVENTION	IQUANT	1	Current Convention
ICHRANGE	IQUANT	2	Ich Range
ICHRANGEMODE	TOGGLE	F	Ich Auto Range
ICHOFFSETENABLE	TOGGLE	F	Ich Offset Enable
ICHOFFSET	QUANT	0	Ich Offset (V)
ICHFILTER	IQUANT	1	Ich Filter
VCHRANGE	IQUANT	2	Vch Range
VCHRANGEMODE	TOGGLE	F	Vch Auto Range
VCHOFFSETENABLE	TOGGLE	F	Vch Offset Enable
VCHOFFSET	QUANT	0	Vch Offset (V)
VCHFILTER	IQUANT	1	Vch Filter
ACHRANGE	IQUANT	2	Ach Range
ACHOFFSETENABLE	TOGGLE	F	Ach Offset Enable
ACHOFFSET	QUANT	0	Ach Offset (V)
ACHFILTER	IQUANT	0	Ach Filter
IERANGELOWERLIMIT	IQUANT	2	I/E Range Lower Limit
IERANGEMODE	TOGGLE	F	I/E AutoRange
IERANGE	IQUANT	10	I/E Range
POSFEEDENABLE	TOGGLE	F	Positive Feedback IR Comp
POSFEEDRESISTANCE	QUANT	0	Positive Feedback Resistance (ohm)
ACHSELECT	IQUANT	0	Ach Select
SENSECABLEID	IQUANT	14	Sense Cable ID
PWRCABLEID	IQUANT	7	Power Cable ID
DCCALDATE	LABEL	11/9/2022	DC Calibration Date
ACCALDATE	LABEL	11/9/2022	AC Calibration Date
THERMOSELECT	IQUANT	1	Thermo Select
FRAMEWORKVERSION	LABEL	7.8.2	Framework Version
INSTRUMENTVERSION	LABEL	4.40	Instrument Version
COMPLIANCEVOLTAGE	IQUANT	0	Compliance Voltage
CURVE1	TABLE
	Pt	T	Vf	Im	Vu	Sig	Ach	IERange	Over	Temp
	#	s	V vs. Ref.	A	V	V	V	#	bits	deg C
	0	0.0002	4.98741E-001	4.21574E-005	0.00000E+000	5.00000E-001	-1.12927E-003	10	..........a	-327.74
	32	0.0066	4.66741E-001	1.00744E-005	0.00000E+000	4.68000E-001	-1.12927E-003	10	..........a	-327.74
	64	0.013	4.34841E-001	8.57054E-006	0.00000E+000	4.36000E-001	-1.12927E-003	10	..........a	-327.74
	96	0.0194	4.02691E-001	-1.95670E-006	0.00000E+000	4.04000E-001	-1.12927E-003	10	..........a	-327.74
	128	0.0258	3.70691E-001	-1.39878E-005	0.00000E+000	3.72000E-001	-1.12927E-003	10	..........a	-327.74
	160	0.0322	3.38791E-001	-6.46837E-006	0.00000E+000	3.40000E-001	-1.12927E-003	10	..........a	-327.74
	192	0.0386	3.06791E-001	-1.54917E-005	0.00000E+000	3.08000E-001	-1.12927E-003	10	..........a	-327.74
	224	0.045	2.74791E-001	-1.59930E-005	0.00000E+000	2.76000E-001	-9.29272E-004	10	..........a	-327.74
	256	0.0514	2.42841E-001	-1.79982E-005	0.00000E+000	2.44000E-001	-1.12927E-003	10	..........a	-327.74
	288	0.0578	2.10791E-001	-2.70215E-005	0.00000E+000	2.12000E-001	-1.12927E-003	10	..........a	-327.74
	320	0.0642	1.78841E-001	-2.45151E-005	0.00000E+000	1.80000E-001	-1.12927E-003	10	..........a	-327.74
	352	0.0706	1.46941E-001	-3.00293E-005	0.00000E+000	1.48000E-001	-1.12927E-003	10	..........a	-327.74
	384	0.077	1.14891E-001	-2.40138E-005	0.00000E+000	1.16000E-001	-1.32927E-003	10	..........a	-327.74
	416	0.0834	8.28410E-002	-3.00293E-005	0.00000E+000	8.40000E-002	-6.29272E-004	10	..........a	-327.74
	448	0.0898	5.09410E-002	-3.00293E-005	0.00000E+000	5.20000E-002	-1.12927E-003	10	..........a	-327.74
	480	0.0962	1.89410E-002	-3.10319E-005	0.00000E+000	2.00000E-002	-1.12927E-003	10	..........a	-327.74
	512	0.1026	-1.31090E-002	-3.10319E-005	0.00000E+000	-1.20000E-002	-1.12927E-003	10	..........a	-327.74
	544	0.109	-4.51090E-002	-3.10319E-005	0.00000E+000	-4.40000E-002	-1.12927E-003	10	..........a	-327.74
	576	0.1154	-7.69090E-002	-3.00293E-005	0.00000E+000	-7.60000E-002	-9.29272E-004	10	..........a	-327.74
	608	0.1218	-1.09109E-001	-3.90527E-005	0.00000E+000	-1.08000E-001	-1.32927E-003	10	..........a	-327.74
	640	0.1282	-1.41159E-001	-3.95540E-005	0.00000E+000	-1.40000E-001	-1.12927E-003	10	..........a	-327.74
	672	0.1346	-1.73109E-001	-4.30630E-005	0.00000E+000	-1.72000E-001	-1.12927E-003	10	..........a	-327.74
	704	0.141	-2.04959E-001	-4.50682E-005	0.00000E+000	-2.04000E-001	-1.12927E-003	10	..........a	-327.74
	736	0.1474	-2.37009E-001	-4.70734E-005	0.00000E+000	-2.36000E-001	-1.12927E-003	10	..........a	-327.74
	768	0.1538	-2.69059E-001	-5.45929E-005	0.00000E+000	-2.68000E-001	-1.12927E-003	10	..........a	-327.74
	800	0.1602	-3.01009E-001	-6.21123E-005	0.00000E+000	-3.00000E-001	-1.12927E-003	10	..........a	-327.74
	832	0.1666	-3.32909E-001	-7.06344E-005	0.00000E+000	-3.32000E-001	-6.29272E-004	10	..........a	-327.74
	864	0.173	-3.65059E-001	-7.86551E-005	0.00000E+000	-3.64000E-001	-6.29272E-004	10	..........a	-327.74
	896	0.1794	-3.97009E-001	-9.56992E-005	0.00000E+000	-3.96000E-001	-1.32927E-003	10	..........a	-327.74
	928	0.1858	-4.29109E-001	-1.46832E-004	0.00000E+000	-4.28000E-001	-1.12927E-003	10	..........a	-327.74
	960	0.1922	-4.60959E-001	-2.43582E-004	0.00000E+000	-4.60000E-001	-1.32927E-003	10	..........a	-327.74
	992	0.1986	-4.92809E-001	-3.55371E-004	0.00000E+000	-4.92000E-001	-1.12927E-003	10	..........a	-327.74
	1024	0.205	-5.24809E-001	-4.97238E-004	0.00000E+000	-5.24000E-001	-9.29272E-004	10	..........a	-327.74
	1056	0.2114	-5.56959E-001	-7.71949E-004	0.00000E+000	-5.56000E-001	-1.12927E-003	10	..........a	-327.74
	1088	0.2178	-5.88759E-001	-1.06070E-003	0.00000E+000	-5.88000E-001	-6.29272E-004	10	..........a	-327.74
	1120	0.2242	-6.20759E-001	-1.15394E-003	0.00000E+000	-6.20000E-001	-1.12927E-003	10	..........a	-327.74
	1152	0.2306	-6.52909E-001	-1.09829E-003	0.00000E+000	-6.52000E-001	-9.29272E-004	10	..........a	-327.74
	1184	0.237	-6.84909E-001	-9.98034E-004	0.00000E+000	-6.84000E-001	-1.12927E-003	10	..........a	-327.74
	1216	0.2434	-7.16809E-001	-9.12312E-004	0.00000E+000	-7.16000E-001	-1.12927E-003	10	..........a	-327.74
	1248	0.2498	-7.48809E-001	-8.44136E-004	0.00000E+000	-7.48000E-001	-1.12927E-003	10	..........a	-327.74
	1280	0.2562	-7.80759E-001	-7.83980E-004	0.00000E+000	-7.80000E-001	-9.29272E-004	10	..........a	-327.74
	1312	0.2626	-8.12809E-001	-7.35855E-004	0.00000E+000	-8.12000E-001	-9.29272E-004	10	..........a	-327.74
	1344	0.269	-8.44859E-001	-6.94248E-004	0.00000E+000	-8.44000E-001	-1.12927E-003	10	..........a	-327.74
	1376	0.2754	-8.76809E-001	-6.60661E-004	0.00000E+000	-8.76000E-001	-1.12927E-003	10	..........a	-327.74
	1408	0.2818	-9.08709E-001	-6.29581E-004	0.00000E+000	-9.08000E-001	-1.12927E-003	10	..........a	-327.74
	1440	0.2882	-9.40759E-001	-6.08025E-004	0.00000E+000	-9.40000E-001	-1.12927E-003	10	..........a	-327.74
	1472	0.2946	-9.72709E-001	-5.84464E-004	0.00000E+000	-9.72000E-001	-1.32927E-003	10	..........a	-327.74
	1504	0.301	-9.96659E-001	-5.27817E-004	0.00000E+000	-9.96000E-001	-9.29272E-004	10	..........a	-327.74
	1536	0.3074	-9.64759E-001	-4.25051E-004	0.00000E+000	-9.64000E-001	-1.12927E-003	10	..........a	-327.74
	1568	0.3138	-9.32709E-001	-3.82942E-004	0.00000E+000	-9.32000E-001	-1.12927E-003	10	..........a	-327.74
	1600	0.3202	-9.00959E-001	-3.48854E-004	0.00000E+000	-9.00000E-001	-1.12927E-003	10	..........a	-327.74
	1632	0.3266	-8.68709E-001	-3.27800E-004	0.00000E+000	-8.68000E-001	-1.12927E-003	10	..........a	-327.74
	1664	0.333	-8.36759E-001	-3.05241E-004	0.00000E+000	-8.36000E-001	-9.29272E-004	10	..........a	-327.74
	1696	0.3394	-8.04959E-001	-2.87195E-004	0.00000E+000	-8.04000E-001	-1.12927E-003	10	..........a	-327.74
	1728	0.3458	-7.72809E-001	-2.70652E-004	0.00000E+000	-7.72000E-001	-1.12927E-003	10	..........a	-327.74
	1760	0.3522	-7.40809E-001	-2.55613E-004	0.00000E+000	-7.40000E-001	-1.12927E-003	10	..........a	-327.74
	1792	0.3586	-7.08859E-001	-2.32052E-004	0.00000E+000	-7.08000E-001	-1.32927E-003	10	..........a	-327.74
	1824	0.365	-6.76759E-001	-2.06987E-004	0.00000E+000	-6.76000E-001	-1.12927E-003	10	..........a	-327.74
	1856	0.3714	-6.44759E-001	-1.63876E-004	0.00000E+000	-6.44000E-001	-1.12927E-003	10	..........a	-327.74
	1888	0.3778	-6.12909E-001	-9.41953E-005	0.00000E+000	-6.12000E-001	-1.12927E-003	10	..........a	-327.74
	1920	0.3842	-5.80859E-001	5.56276E-006	0.00000E+000	-5.80000E-001	-1.12927E-003	10	..........a	-327.74
	1952	0.3906	-5.48759E-001	1.22365E-004	0.00000E+000	-5.48000E-001	-6.29272E-004	10	..........a	-327.74
	1984	0.397	-5.16859E-001	2.38666E-004	0.00000E+000	-5.16000E-001	-1.12927E-003	10	..........a	-327.74
	2016	0.4034	-4.84959E-001	3.54967E-004	0.00000E+000	-4.84000E-001	-1.12927E-003	10	..........a	-327.74
	2048	0.4098	-4.53009E-001	4.49712E-004	0.00000E+000	-4.52000E-001	-1.32927E-003	10	..........a	-327.74
	2080	0.4162	-4.21159E-001	4.85805E-004	0.00000E+000	-4.20000E-001	-1.12927E-003	10	..........a	-327.74
	2112	0.4226	-3.89009E-001	4.73774E-004	0.00000E+000	-3.88000E-001	-1.12927E-003	10	..........a	-327.74
	2144	0.429	-3.56909E-001	4.51216E-004	0.00000E+000	-3.56000E-001	-1.12927E-003	10	..........a	-327.74
	2176	0.4354	-3.25159E-001	4.29660E-004	0.00000E+000	-3.24000E-001	-1.12927E-003	10	..........a	-327.74
	2208	0.4418	-2.93059E-001	4.18632E-004	0.00000E+000	-2.92000E-001	-1.12927E-003	10	..........a	-327.74
	2240	0.4482	-2.61109E-001	4.09608E-004	0.00000E+000	-2.60000E-001	-1.12927E-003	10	..........a	-327.74
	2272	0.4546	-2.28909E-001	3.94068E-004	0.00000E+000	-2.28000E-001	-1.12927E-003	10	..........a	-327.74
	2304	0.461	-1.97109E-001	3.74016E-004	0.00000E+000	-1.96000E-001	-1.12927E-003	10	..........a	-327.74
	2336	0.4674	-1.65159E-001	3.53463E-004	0.00000E+000	-1.64000E-001	-1.12927E-003	10	..........a	-327.74
	2368	0.4738	-1.33109E-001	3.30904E-004	0.00000E+000	-1.32000E-001	-1.12927E-003	10	..........a	-327.74
	2400	0.4802	-1.01109E-001	3.14863E-004	0.00000E+000	-1.00000E-001	-6.29272E-004	10	..........a	-327.74
	2432	0.4866	-6.91090E-002	2.97318E-004	0.00000E+000	-6.80000E-002	-1.12927E-003	10	..........a	-327.74
	2464	0.493	-3.70590E-002	2.82780E-004	0.00000E+000	-3.60000E-002	-1.12927E-003	10	..........a	-327.74
	2496	0.4994	-5.15900E-003	2.74759E-004	0.00000E+000	-4.00001E-003	-1.12927E-003	10	..........a	-327.74
	2528	0.5058	2.69910E-002	2.62227E-004	0.00000E+000	2.80000E-002	-1.12927E-003	10	..........a	-327.74
	2560	0.5122	5.89410E-002	2.69245E-004	0.00000E+000	6.00000E-002	-1.12927E-003	10	..........a	-327.74
	2592	0.5186	9.09410E-002	2.65736E-004	0.00000E+000	9.20000E-002	-1.12927E-003	10	..........a	-327.74
	2624	0.525	1.22841E-001	2.72253E-004	0.00000E+000	1.24000E-001	-1.12927E-003	10	..........a	-327.74
	2656	0.5314	1.54891E-001	2.73757E-004	0.00000E+000	1.56000E-001	-1.12927E-003	10	..........a	-327.74
	2688	0.5378	1.86791E-001	2.78268E-004	0.00000E+000	1.88000E-001	-1.12927E-003	10	..........a	-327.74
	2720	0.5442	2.18941E-001	2.78268E-004	0.00000E+000	2.20000E-001	-1.12927E-003	10	..........a	-327.74
	2752	0.5506	2.50991E-001	2.73757E-004	0.00000E+000	2.52000E-001	-1.12927E-003	10	..........a	-327.74
	2784	0.557	2.82491E-001	2.58718E-004	0.00000E+000	2.84000E-001	-1.12927E-003	10	..........a	-327.74
	2816	0.5634	3.14741E-001	2.42676E-004	0.00000E+000	3.16000E-001	-1.12927E-003	10	..........a	-327.74
	2848	0.5698	3.46891E-001	2.29643E-004	0.00000E+000	3.48000E-001	-6.29272E-004	10	..........a	-327.74
	2880	0.5762	3.78791E-001	2.22624E-004	0.00000E+000	3.80000E-001	-6.29272E-004	10	..........a	-327.74
	2912	0.5826	4.10691E-001	2.17110E-004	0.00000E+000	4.12000E-001	-1.32927E-003	10	..........a	-327.74
	2944	0.589	4.42741E-001	2.10593E-004	0.00000E+000	4.44000E-001	-1.12927E-003	10	..........a	-327.74
	2976	0.5954	4.74741E-001	1.98562E-004	0.00000E+000	4.76000E-001	-1.12927E-003	10	..........a	-327.74
	3000	0.6002	4.98591E-001	1.98562E-004	0.00000E+000	5.00000E-001	-1.12927E-003	10	..........a	-327.74
CURVE2	TABLE
	Pt	T	Vf	Im	Vu	Sig	Ach	IERange	Over	Temp
	#	s	V vs. Ref.	A	V	V	V	#	bits	deg C
	3001	0.6004	4.98741E-001	1.93048E-004	0.00000E+000	5.00000E-001	-9.29272E-004	10	..........a	-327.74