File: data/02-SI/Figures_S9_S11_RDE/15btmapaq-rde/1mkcl-15btmapaq-nitrogen-900mvpers.DTA
EXPLAIN
TAG	CV
TITLE	LABEL	Cyclic Voltammetry	Test &Identifier
DATE	LABEL	1/31/2023	Date
TIME	LABEL	18:20:17	Time
NOTES	NOTES	1	&Notes...

PSTAT	PSTAT	REF3000-21108	Potentiostat
VINIT	POTEN	5.00000E-001	F	Initial &E (V)
VLIMIT1	POTEN	-1.00000E+000	F	Scan Limit &1 (V)
VLIMIT2	POTEN	5.00000E-001	F	Scan Limit &2 (V)
VFINAL	POTEN	5.00000E-001	F	Final &E (V)
SCANRATE	QUANT	8.95521E+002	&Scan Rate (mV/s)
STEPSIZE	QUANT	1.00000E+000	St&ep Size (mV)
CYCLES	IQUANT	1	C&ycles (#)
IMODE	SELECTOR	1	I/E Range &Mode
IRANGE	QUANT	1.00000E+001	&Max Current (mA)
AREA	QUANT	1.00000E+000	Electrode &Area (cm^2)
ELECTRODETYPE	SELECTOR	0	Electrode Type
STRIPPING	TOGGLE	F	Used for Stripping
POLARITY	TOGGLE	F	Signal Polarity
CONDIT	TWOPARAM	F	1.50000E+001	0.00000E+000	Conditionin&g	Time(s)	E(V)
DELAY	TWOPARAM	F	5.00000E+000	0.00000E+000	Init. De&lay	Time(s)	Stab.(mV/s)
EQDELAY	QUANT	0.00000E+000	Equil. &Time (s)
IRCOMP	SELECTOR	0	IRCom&p
PFCOR	QUANT	5.00000E+001	PF Corr. (ohm)
SAMPLINGMODE	SELECTOR	1	Sampling &Mode
EOC	QUANT	0	Open Circuit (V)
PSTATMODEL	IQUANT	5	Pstat Model
PSTATSECTION	LABEL	REF3000-21108	Pstat Section
PSTATSERIALNO	LABEL	21108	Pstat Serial Number
CTRLMODE	IQUANT	1	Control Mode
ELECTROMETER	IQUANT	0	RE=0 or CS=1
IESTAB	IQUANT	2	I/E Stability
CASPEED	IQUANT	4	Control Amp Speed
CONVENTION	IQUANT	1	Current Convention
ICHRANGE	IQUANT	2	Ich Range
ICHRANGEMODE	TOGGLE	F	Ich Auto Range
ICHOFFSETENABLE	TOGGLE	F	Ich Offset Enable
ICHOFFSET	QUANT	0	Ich Offset (V)
ICHFILTER	IQUANT	1	Ich Filter
VCHRANGE	IQUANT	2	Vch Range
VCHRANGEMODE	TOGGLE	F	Vch Auto Range
VCHOFFSETENABLE	TOGGLE	F	Vch Offset Enable
VCHOFFSET	QUANT	0	Vch Offset (V)
VCHFILTER	IQUANT	1	Vch Filter
ACHRANGE	IQUANT	2	Ach Range
ACHOFFSETENABLE	TOGGLE	F	Ach Offset Enable
ACHOFFSET	QUANT	0	Ach Offset (V)
ACHFILTER	IQUANT	0	Ach Filter
IERANGELOWERLIMIT	IQUANT	2	I/E Range Lower Limit
IERANGEMODE	TOGGLE	F	I/E AutoRange
IERANGE	IQUANT	10	I/E Range
POSFEEDENABLE	TOGGLE	F	Positive Feedback IR Comp
POSFEEDRESISTANCE	QUANT	0	Positive Feedback Resistance (ohm)
ACHSELECT	IQUANT	0	Ach Select
SENSECABLEID	IQUANT	14	Sense Cable ID
PWRCABLEID	IQUANT	7	Power Cable ID
DCCALDATE	LABEL	11/9/2022	DC Calibration Date
ACCALDATE	LABEL	11/9/2022	AC Calibration Date
THERMOSELECT	IQUANT	1	Thermo Select
FRAMEWORKVERSION	LABEL	7.8.2	Framework Version
INSTRUMENTVERSION	LABEL	4.40	Instrument Version
COMPLIANCEVOLTAGE	IQUANT	0	Compliance Voltage
CURVE1	TABLE
	Pt	T	Vf	Im	Vu	Sig	Ach	IERange	Over	Temp
	#	s	V vs. Ref.	A	V	V	V	#	bits	deg C
	0	0.001117	4.98637E-001	5.17206E-005	0.00000E+000	5.00000E-001	-8.43558E-004	10	..........a	-327.74
	32	0.03685	4.66468E-001	2.32624E-005	0.00000E+000	4.67850E-001	-8.14986E-004	10	..........a	-327.74
	64	0.072583	4.34368E-001	1.40848E-005	0.00000E+000	4.35700E-001	-7.72129E-004	10	..........a	-327.74
	96	0.108317	4.02176E-001	8.30061E-006	0.00000E+000	4.03500E-001	-8.43558E-004	10	..........a	-327.74
	128	0.14405	3.70014E-001	4.21311E-006	0.00000E+000	3.71350E-001	-8.43558E-004	10	..........a	-327.74
	160	0.179783	3.37860E-001	2.36217E-006	0.00000E+000	3.39200E-001	-8.86415E-004	10	..........a	-327.74
	192	0.215517	3.05714E-001	-2.95929E-006	0.00000E+000	3.07050E-001	-8.43558E-004	10	..........a	-327.74
	224	0.25125	2.73622E-001	-5.81283E-006	0.00000E+000	2.74900E-001	-8.57844E-004	10	..........a	-327.74
	256	0.286983	2.41414E-001	-7.20103E-006	0.00000E+000	2.42700E-001	-9.14986E-004	10	..........a	-327.74
	288	0.322717	2.09245E-001	-9.36047E-006	0.00000E+000	2.10550E-001	-8.43558E-004	10	..........a	-327.74
	320	0.35845	1.77199E-001	-1.09800E-005	0.00000E+000	1.78400E-001	-8.57844E-004	10	..........a	-327.74
	352	0.394183	1.45083E-001	-1.23682E-005	0.00000E+000	1.46250E-001	-8.29272E-004	10	..........a	-327.74
	384	0.429917	1.12891E-001	-1.28310E-005	0.00000E+000	1.14100E-001	-8.72129E-004	10	..........a	-327.74
	416	0.46565	8.06910E-002	-1.46048E-005	0.00000E+000	8.19000E-002	-8.57844E-004	10	..........a	-327.74
	448	0.501383	4.85602E-002	-1.38336E-005	0.00000E+000	4.97500E-002	-8.43558E-004	10	..........a	-327.74
	480	0.537117	1.64064E-002	-1.46819E-005	0.00000E+000	1.76000E-002	-8.57844E-004	10	..........a	-327.74
	512	0.57285	-1.57782E-002	-1.59159E-005	0.00000E+000	-1.45500E-002	-8.00701E-004	10	..........a	-327.74
	544	0.608583	-4.79013E-002	-1.56845E-005	0.00000E+000	-4.67000E-002	-8.00701E-004	10	..........a	-327.74
	576	0.644317	-8.00321E-002	-1.60701E-005	0.00000E+000	-7.89000E-002	-7.72129E-004	10	..........a	-327.74
	608	0.68005	-1.12255E-001	-1.76897E-005	0.00000E+000	-1.11050E-001	-8.14986E-004	10	..........a	-327.74
	640	0.715783	-1.44371E-001	-1.79982E-005	0.00000E+000	-1.43200E-001	-8.29272E-004	10	..........a	-327.74
	672	0.751517	-1.76424E-001	-1.98491E-005	0.00000E+000	-1.75350E-001	-8.43558E-004	10	..........a	-327.74
	704	0.78725	-2.08624E-001	-2.13145E-005	0.00000E+000	-2.07500E-001	-9.29272E-004	10	..........a	-327.74
	736	0.822983	-2.40747E-001	-2.31654E-005	0.00000E+000	-2.39700E-001	-8.86415E-004	10	..........a	-327.74
	768	0.858717	-2.72924E-001	-2.53248E-005	0.00000E+000	-2.71850E-001	-8.14986E-004	10	..........a	-327.74
	800	0.89445	-3.05055E-001	-2.71758E-005	0.00000E+000	-3.04000E-001	-8.29272E-004	10	..........a	-327.74
	832	0.930183	-3.37186E-001	-3.04149E-005	0.00000E+000	-3.36150E-001	-8.00701E-004	10	..........a	-327.74
	864	0.96592	-3.69332E-001	-3.38083E-005	0.00000E+000	-3.68300E-001	-7.72129E-004	10	..........a	-327.74
	896	1.00165	-4.01486E-001	-4.70734E-005	0.00000E+000	-4.00500E-001	-8.14986E-004	10	..........a	-327.74
	928	1.03738	-4.33694E-001	-8.20100E-005	0.00000E+000	-4.32650E-001	-7.57844E-004	10	..........a	-327.74
	960	1.07312	-4.65809E-001	-1.33219E-004	0.00000E+000	-4.64800E-001	-8.29272E-004	10	..........a	-327.74
	992	1.10885	-4.98001E-001	-1.83503E-004	0.00000E+000	-4.96950E-001	-8.43558E-004	10	..........a	-327.74
	1024	1.14458	-5.30086E-001	-2.73505E-004	0.00000E+000	-5.29100E-001	-8.14986E-004	10	..........a	-327.74
	1056	1.18032	-5.62286E-001	-4.08856E-004	0.00000E+000	-5.61300E-001	-8.43558E-004	10	..........a	-327.74
	1088	1.21605	-5.94401E-001	-4.83510E-004	0.00000E+000	-5.93450E-001	-8.86415E-004	10	..........a	-327.74
	1120	1.25178	-6.26555E-001	-4.63767E-004	0.00000E+000	-6.25600E-001	-8.00701E-004	10	..........a	-327.74
	1152	1.28752	-6.58755E-001	-4.10629E-004	0.00000E+000	-6.57750E-001	-8.29272E-004	10	..........a	-327.74
	1184	1.32325	-6.90786E-001	-3.68135E-004	0.00000E+000	-6.89900E-001	-8.29272E-004	10	..........a	-327.74
	1216	1.35898	-7.23001E-001	-3.35820E-004	0.00000E+000	-7.22100E-001	-8.43558E-004	10	..........a	-327.74
	1248	1.39472	-7.55117E-001	-3.09445E-004	0.00000E+000	-7.54250E-001	-8.29272E-004	10	..........a	-327.74
	1280	1.43045	-7.87294E-001	-2.90318E-004	0.00000E+000	-7.86400E-001	-8.14986E-004	10	..........a	-327.74
	1312	1.46618	-8.19455E-001	-2.74508E-004	0.00000E+000	-8.18550E-001	-9.29272E-004	10	..........a	-327.74
	1344	1.50192	-8.51586E-001	-2.61166E-004	0.00000E+000	-8.50700E-001	-8.43558E-004	10	..........a	-327.74
	1376	1.53765	-8.83709E-001	-2.49212E-004	0.00000E+000	-8.82900E-001	-8.43558E-004	10	..........a	-327.74
	1408	1.57338	-9.15824E-001	-2.39726E-004	0.00000E+000	-9.15050E-001	-8.14986E-004	10	..........a	-327.74
	1440	1.60912	-9.47971E-001	-2.31628E-004	0.00000E+000	-9.47200E-001	-8.29272E-004	10	..........a	-327.74
	1472	1.64485	-9.80047E-001	-2.23838E-004	0.00000E+000	-9.79350E-001	-8.86415E-004	10	..........a	-327.74
	1504	1.68058	-9.88171E-001	-2.02861E-004	0.00000E+000	-9.87400E-001	-8.00701E-004	10	..........a	-327.74
	1536	1.71632	-9.56086E-001	-1.85817E-004	0.00000E+000	-9.55250E-001	-8.43558E-004	10	..........a	-327.74
	1568	1.75205	-9.23863E-001	-1.74403E-004	0.00000E+000	-9.23100E-001	-8.29272E-004	10	..........a	-327.74
	1600	1.78778	-8.91671E-001	-1.67770E-004	0.00000E+000	-8.90900E-001	-8.57844E-004	10	..........a	-327.74
	1632	1.82352	-8.59555E-001	-1.60675E-004	0.00000E+000	-8.58750E-001	-8.57844E-004	10	..........a	-327.74
	1664	1.85925	-8.27447E-001	-1.54737E-004	0.00000E+000	-8.26600E-001	-7.86415E-004	10	..........a	-327.74
	1696	1.89498	-7.95355E-001	-1.50186E-004	0.00000E+000	-7.94450E-001	-7.72129E-004	10	..........a	-327.74
	1728	1.93072	-7.63232E-001	-1.43708E-004	0.00000E+000	-7.62300E-001	-8.29272E-004	10	..........a	-327.74
	1760	1.96645	-7.30978E-001	-1.38001E-004	0.00000E+000	-7.30100E-001	-8.14986E-004	10	..........a	-327.74
	1792	2.00218	-6.98801E-001	-1.29826E-004	0.00000E+000	-6.97950E-001	-8.14986E-004	10	..........a	-327.74
	1824	2.03792	-6.66763E-001	-1.21882E-004	0.00000E+000	-6.65800E-001	-8.43558E-004	10	..........a	-327.74
	1856	2.07365	-6.34578E-001	-1.05455E-004	0.00000E+000	-6.33650E-001	-8.29272E-004	10	..........a	-327.74
	1888	2.10938	-6.02455E-001	-7.51461E-005	0.00000E+000	-6.01500E-001	-8.14986E-004	10	..........a	-327.74
	1920	2.14512	-5.70240E-001	-2.14687E-005	0.00000E+000	-5.69300E-001	-7.86415E-004	10	..........a	-327.74
	1952	2.18085	-5.38078E-001	5.28775E-005	0.00000E+000	-5.37150E-001	-8.29272E-004	10	..........a	-327.74
	1984	2.21658	-5.05978E-001	1.23676E-004	0.00000E+000	-5.05000E-001	-8.43558E-004	10	..........a	-327.74
	2016	2.25232	-4.73894E-001	1.83060E-004	0.00000E+000	-4.72850E-001	-9.14986E-004	10	..........a	-327.74
	2048	2.28805	-4.41647E-001	2.11133E-004	0.00000E+000	-4.40700E-001	-8.29272E-004	10	..........a	-327.74
	2080	2.32378	-4.09570E-001	2.02958E-004	0.00000E+000	-4.08500E-001	-8.14986E-004	10	..........a	-327.74
	2112	2.35952	-3.77340E-001	1.84603E-004	0.00000E+000	-3.76350E-001	-8.57844E-004	10	..........a	-327.74
	2144	2.39525	-3.45201E-001	1.68561E-004	0.00000E+000	-3.44200E-001	-8.57844E-004	10	..........a	-327.74
	2176	2.43098	-3.13117E-001	1.56299E-004	0.00000E+000	-3.12050E-001	-9.29272E-004	10	..........a	-327.74
	2208	2.46672	-2.80986E-001	1.47044E-004	0.00000E+000	-2.79900E-001	-9.00701E-004	10	..........a	-327.74
	2240	2.50245	-2.48747E-001	1.38946E-004	0.00000E+000	-2.47700E-001	-8.86415E-004	10	..........a	-327.74
	2272	2.53818	-2.16540E-001	1.31234E-004	0.00000E+000	-2.15550E-001	-9.14986E-004	10	..........a	-327.74
	2304	2.57392	-1.84463E-001	1.21439E-004	0.00000E+000	-1.83400E-001	-8.43558E-004	10	..........a	-327.74
	2336	2.60965	-1.52417E-001	1.13650E-004	0.00000E+000	-1.51250E-001	-8.86415E-004	10	..........a	-327.74
	2368	2.64538	-1.20294E-001	1.05784E-004	0.00000E+000	-1.19100E-001	-8.00701E-004	10	..........a	-327.74
	2400	2.68112	-8.80936E-002	9.72230E-005	0.00000E+000	-8.69000E-002	-8.57844E-004	10	..........a	-327.74
	2432	2.71685	-5.59551E-002	9.23643E-005	0.00000E+000	-5.47500E-002	-8.00701E-004	10	..........a	-327.74
	2464	2.75258	-2.38167E-002	8.78140E-005	0.00000E+000	-2.26000E-002	-8.29272E-004	10	..........a	-327.74
	2496	2.78832	8.39100E-003	8.38808E-005	0.00000E+000	9.55001E-003	-8.57844E-004	10	..........a	-327.74
	2528	2.82405	4.04987E-002	8.11815E-005	0.00000E+000	4.17000E-002	-8.29272E-004	10	..........a	-327.74
	2560	2.85978	7.27218E-002	8.08730E-005	0.00000E+000	7.39000E-002	-8.57844E-004	10	..........a	-327.74
	2592	2.89552	1.04837E-001	7.76338E-005	0.00000E+000	1.06050E-001	-8.57844E-004	10	..........a	-327.74
	2624	2.93125	1.36983E-001	7.67855E-005	0.00000E+000	1.38200E-001	-8.57844E-004	10	..........a	-327.74
	2656	2.96698	1.69137E-001	7.74796E-005	0.00000E+000	1.70350E-001	-8.57844E-004	10	..........a	-327.74
	2688	3.00272	2.01253E-001	7.72482E-005	0.00000E+000	2.02500E-001	-8.29272E-004	10	..........a	-327.74
	2720	3.03845	2.33383E-001	7.72482E-005	0.00000E+000	2.34700E-001	-7.86415E-004	10	..........a	-327.74
	2752	3.07418	2.65591E-001	7.35463E-005	0.00000E+000	2.66850E-001	-9.00701E-004	10	..........a	-327.74
	2784	3.10992	2.97637E-001	6.94588E-005	0.00000E+000	2.99000E-001	-8.29272E-004	10	..........a	-327.74
	2816	3.14565	3.29845E-001	6.62968E-005	0.00000E+000	3.31150E-001	-8.72129E-004	10	..........a	-327.74
	2848	3.18138	3.61937E-001	6.22093E-005	0.00000E+000	3.63300E-001	-8.43558E-004	10	..........a	-327.74
	2880	3.21712	3.94168E-001	5.89702E-005	0.00000E+000	3.95500E-001	-8.86415E-004	10	..........a	-327.74
	2912	3.25285	4.26306E-001	5.70421E-005	0.00000E+000	4.27650E-001	-8.29272E-004	10	..........a	-327.74
	2944	3.28858	4.58468E-001	5.59624E-005	0.00000E+000	4.59800E-001	-8.29272E-004	10	..........a	-327.74
	2976	3.32432	4.90576E-001	5.26461E-005	0.00000E+000	4.91950E-001	-8.29272E-004	10	..........a	-327.74
	2984	3.33325	4.98683E-001	5.33402E-005	0.00000E+000	5.00000E-001	-8.43558E-004	10	..........a	-327.74
CURVE2	TABLE
	Pt	T	Vf	Im	Vu	Sig	Ach	IERange	Over	Temp
	#	s	V vs. Ref.	A	V	V	V	#	bits	deg C
	2985	3.33437	4.98660E-001	5.17206E-005	0.00000E+000	5.00000E-001	-8.29272E-004	10	..........a	-327.74