File: data/02-SI/Figures_S9_S11_RDE/15btmapaq-rde/1mkcl-15btmapaq-nitrogen-2000mvpers.DTA
EXPLAIN
TAG	CV
TITLE	LABEL	Cyclic Voltammetry	Test &Identifier
DATE	LABEL	1/31/2023	Date
TIME	LABEL	18:20:57	Time
NOTES	NOTES	1	&Notes...

PSTAT	PSTAT	REF3000-21108	Potentiostat
VINIT	POTEN	5.00000E-001	F	Initial &E (V)
VLIMIT1	POTEN	-1.00000E+000	F	Scan Limit &1 (V)
VLIMIT2	POTEN	5.00000E-001	F	Scan Limit &2 (V)
VFINAL	POTEN	5.00000E-001	F	Final &E (V)
SCANRATE	QUANT	2.00000E+003	&Scan Rate (mV/s)
STEPSIZE	QUANT	1.00000E+000	St&ep Size (mV)
CYCLES	IQUANT	1	C&ycles (#)
IMODE	SELECTOR	1	I/E Range &Mode
IRANGE	QUANT	1.00000E+001	&Max Current (mA)
AREA	QUANT	1.00000E+000	Electrode &Area (cm^2)
ELECTRODETYPE	SELECTOR	0	Electrode Type
STRIPPING	TOGGLE	F	Used for Stripping
POLARITY	TOGGLE	F	Signal Polarity
CONDIT	TWOPARAM	F	1.50000E+001	0.00000E+000	Conditionin&g	Time(s)	E(V)
DELAY	TWOPARAM	F	5.00000E+000	0.00000E+000	Init. De&lay	Time(s)	Stab.(mV/s)
EQDELAY	QUANT	0.00000E+000	Equil. &Time (s)
IRCOMP	SELECTOR	0	IRCom&p
PFCOR	QUANT	5.00000E+001	PF Corr. (ohm)
SAMPLINGMODE	SELECTOR	1	Sampling &Mode
EOC	QUANT	0	Open Circuit (V)
PSTATMODEL	IQUANT	5	Pstat Model
PSTATSECTION	LABEL	REF3000-21108	Pstat Section
PSTATSERIALNO	LABEL	21108	Pstat Serial Number
CTRLMODE	IQUANT	1	Control Mode
ELECTROMETER	IQUANT	0	RE=0 or CS=1
IESTAB	IQUANT	2	I/E Stability
CASPEED	IQUANT	4	Control Amp Speed
CONVENTION	IQUANT	1	Current Convention
ICHRANGE	IQUANT	2	Ich Range
ICHRANGEMODE	TOGGLE	F	Ich Auto Range
ICHOFFSETENABLE	TOGGLE	F	Ich Offset Enable
ICHOFFSET	QUANT	0	Ich Offset (V)
ICHFILTER	IQUANT	1	Ich Filter
VCHRANGE	IQUANT	2	Vch Range
VCHRANGEMODE	TOGGLE	F	Vch Auto Range
VCHOFFSETENABLE	TOGGLE	F	Vch Offset Enable
VCHOFFSET	QUANT	0	Vch Offset (V)
VCHFILTER	IQUANT	1	Vch Filter
ACHRANGE	IQUANT	2	Ach Range
ACHOFFSETENABLE	TOGGLE	F	Ach Offset Enable
ACHOFFSET	QUANT	0	Ach Offset (V)
ACHFILTER	IQUANT	0	Ach Filter
IERANGELOWERLIMIT	IQUANT	2	I/E Range Lower Limit
IERANGEMODE	TOGGLE	F	I/E AutoRange
IERANGE	IQUANT	10	I/E Range
POSFEEDENABLE	TOGGLE	F	Positive Feedback IR Comp
POSFEEDRESISTANCE	QUANT	0	Positive Feedback Resistance (ohm)
ACHSELECT	IQUANT	0	Ach Select
SENSECABLEID	IQUANT	14	Sense Cable ID
PWRCABLEID	IQUANT	7	Power Cable ID
DCCALDATE	LABEL	11/9/2022	DC Calibration Date
ACCALDATE	LABEL	11/9/2022	AC Calibration Date
THERMOSELECT	IQUANT	1	Thermo Select
FRAMEWORKVERSION	LABEL	7.8.2	Framework Version
INSTRUMENTVERSION	LABEL	4.40	Instrument Version
COMPLIANCEVOLTAGE	IQUANT	0	Compliance Voltage
CURVE1	TABLE
	Pt	T	Vf	Im	Vu	Sig	Ach	IERange	Over	Temp
	#	s	V vs. Ref.	A	V	V	V	#	bits	deg C
	0	0.0005	4.98808E-001	6.37132E-005	0.00000E+000	5.00000E-001	-7.95939E-004	10	..........a	-327.74
	31	0.016	4.67791E-001	3.81471E-005	0.00000E+000	4.69000E-001	-9.29272E-004	10	..........a	-327.74
	62	0.0315	4.36791E-001	2.67843E-005	0.00000E+000	4.38000E-001	-8.95939E-004	10	..........a	-327.74
	93	0.047	4.05841E-001	1.99333E-005	0.00000E+000	4.07000E-001	-9.62605E-004	10	..........a	-327.74
	124	0.0625	3.74808E-001	1.45861E-005	0.00000E+000	3.76000E-001	-8.95939E-004	10	..........a	-327.74
	155	0.078	3.43791E-001	1.00744E-005	0.00000E+000	3.45000E-001	-9.62605E-004	10	..........a	-327.74
	186	0.0935	3.12741E-001	8.40344E-006	0.00000E+000	3.14000E-001	-9.29272E-004	10	..........a	-327.74
	217	0.109	2.81808E-001	4.89436E-006	0.00000E+000	2.83000E-001	-8.95939E-004	10	..........a	-327.74
	248	0.1245	2.50841E-001	3.39047E-006	0.00000E+000	2.52000E-001	-8.29272E-004	10	..........a	-327.74
	279	0.14	2.19791E-001	-4.63028E-006	0.00000E+000	2.21000E-001	-8.62605E-004	10	..........a	-327.74
	310	0.1555	1.88808E-001	-5.13158E-006	0.00000E+000	1.90000E-001	-7.95939E-004	10	..........a	-327.74
	341	0.171	1.57908E-001	-8.80775E-006	0.00000E+000	1.59000E-001	-7.95939E-004	10	..........a	-327.74
	372	0.1865	1.26891E-001	-9.81035E-006	0.00000E+000	1.28000E-001	-8.62605E-004	10	..........a	-327.74
	403	0.202	9.57743E-002	-1.23168E-005	0.00000E+000	9.70000E-002	-7.95939E-004	10	..........a	-327.74
	434	0.2175	6.49910E-002	-1.44891E-005	0.00000E+000	6.60000E-002	-8.95939E-004	10	..........a	-327.74
	465	0.233	3.39243E-002	-1.31523E-005	0.00000E+000	3.50000E-002	-8.62605E-004	10	..........a	-327.74
	496	0.2485	2.94100E-003	-1.46562E-005	0.00000E+000	4.00001E-003	-8.62605E-004	10	..........a	-327.74
	527	0.264	-2.80590E-002	-1.68285E-005	0.00000E+000	-2.70000E-002	-8.95939E-004	10	..........a	-327.74
	558	0.2795	-5.92257E-002	-1.69956E-005	0.00000E+000	-5.80000E-002	-9.29272E-004	10	..........a	-327.74
	589	0.295	-9.00757E-002	-1.74969E-005	0.00000E+000	-8.90000E-002	-9.29272E-004	10	..........a	-327.74
	620	0.3105	-1.21109E-001	-1.98363E-005	0.00000E+000	-1.20000E-001	-8.62605E-004	10	..........a	-327.74
	651	0.326	-1.52092E-001	-2.00034E-005	0.00000E+000	-1.51000E-001	-9.29272E-004	10	..........a	-327.74
	682	0.3415	-1.82959E-001	-2.31783E-005	0.00000E+000	-1.82000E-001	-8.62605E-004	10	..........a	-327.74
	713	0.357	-2.14026E-001	-2.45151E-005	0.00000E+000	-2.13000E-001	-8.29272E-004	10	..........a	-327.74
	744	0.3725	-2.44976E-001	-2.86925E-005	0.00000E+000	-2.44000E-001	-8.62605E-004	10	..........a	-327.74
	775	0.388	-2.76042E-001	-3.37055E-005	0.00000E+000	-2.75000E-001	-8.95939E-004	10	..........a	-327.74
	806	0.4035	-3.06959E-001	-3.73817E-005	0.00000E+000	-3.06000E-001	-8.29272E-004	10	..........a	-327.74
	837	0.419	-3.37892E-001	-4.03895E-005	0.00000E+000	-3.37000E-001	-8.29272E-004	10	..........a	-327.74
	868	0.4345	-3.68842E-001	-4.59037E-005	0.00000E+000	-3.68000E-001	-8.29272E-004	10	..........a	-327.74
	899	0.45	-3.99992E-001	-6.07755E-005	0.00000E+000	-3.99000E-001	-8.95939E-004	10	..........a	-327.74
	930	0.4655	-4.30909E-001	-9.65347E-005	0.00000E+000	-4.30000E-001	-8.95939E-004	10	..........a	-327.74
	961	0.481	-4.61976E-001	-1.65212E-004	0.00000E+000	-4.61000E-001	-8.62605E-004	10	..........a	-327.74
	992	0.4965	-4.92992E-001	-2.34224E-004	0.00000E+000	-4.92000E-001	-9.29272E-004	10	..........a	-327.74
	1023	0.512	-5.23859E-001	-3.32311E-004	0.00000E+000	-5.23000E-001	-7.62605E-004	10	..........a	-327.74
	1054	0.5275	-5.54826E-001	-5.12110E-004	0.00000E+000	-5.54000E-001	-8.62605E-004	10	..........a	-327.74
	1085	0.543	-5.85892E-001	-6.74029E-004	0.00000E+000	-5.85000E-001	-9.29272E-004	10	..........a	-327.74
	1116	0.5585	-6.16826E-001	-7.08451E-004	0.00000E+000	-6.16000E-001	-7.95939E-004	10	..........a	-327.74
	1147	0.574	-6.47842E-001	-6.50969E-004	0.00000E+000	-6.47000E-001	-8.95939E-004	10	..........a	-327.74
	1178	0.5895	-6.78826E-001	-5.84130E-004	0.00000E+000	-6.78000E-001	-8.29272E-004	10	..........a	-327.74
	1209	0.605	-7.09909E-001	-5.29655E-004	0.00000E+000	-7.09000E-001	-8.29272E-004	10	..........a	-327.74
	1240	0.6205	-7.40826E-001	-4.88716E-004	0.00000E+000	-7.40000E-001	-8.95939E-004	10	..........a	-327.74
	1271	0.636	-7.71726E-001	-4.55129E-004	0.00000E+000	-7.71000E-001	-9.62605E-004	10	..........a	-327.74
	1302	0.6515	-8.02826E-001	-4.27725E-004	0.00000E+000	-8.02000E-001	-7.95939E-004	10	..........a	-327.74
	1333	0.667	-8.33742E-001	-4.05501E-004	0.00000E+000	-8.33000E-001	-8.62605E-004	10	..........a	-327.74
	1364	0.6825	-8.64692E-001	-3.84112E-004	0.00000E+000	-8.64000E-001	-8.95939E-004	10	..........a	-327.74
	1395	0.698	-8.95642E-001	-3.68739E-004	0.00000E+000	-8.95000E-001	-8.29272E-004	10	..........a	-327.74
	1426	0.7135	-9.26642E-001	-3.55037E-004	0.00000E+000	-9.26000E-001	-7.62605E-004	10	..........a	-327.74
	1457	0.729	-9.57859E-001	-3.44008E-004	0.00000E+000	-9.57000E-001	-7.29272E-004	10	..........a	-327.74
	1488	0.7445	-9.88709E-001	-3.34317E-004	0.00000E+000	-9.88000E-001	-8.29272E-004	10	..........a	-327.74
	1519	0.76	-9.81626E-001	-2.82349E-004	0.00000E+000	-9.81000E-001	-7.95939E-004	10	..........a	-327.74
	1550	0.7755	-9.50659E-001	-2.55446E-004	0.00000E+000	-9.50000E-001	-7.62605E-004	10	..........a	-327.74
	1581	0.791	-9.19626E-001	-2.39237E-004	0.00000E+000	-9.19000E-001	-7.95939E-004	10	..........a	-327.74
	1612	0.8065	-8.88742E-001	-2.27373E-004	0.00000E+000	-8.88000E-001	-9.62605E-004	10	..........a	-327.74
	1643	0.822	-8.57776E-001	-2.16178E-004	0.00000E+000	-8.57000E-001	-8.29272E-004	10	..........a	-327.74
	1674	0.8375	-8.26776E-001	-2.06653E-004	0.00000E+000	-8.26000E-001	-8.62605E-004	10	..........a	-327.74
	1705	0.853	-7.95692E-001	-1.96961E-004	0.00000E+000	-7.95000E-001	-8.62605E-004	10	..........a	-327.74
	1736	0.8685	-7.64892E-001	-1.89442E-004	0.00000E+000	-7.64000E-001	-7.95939E-004	10	..........a	-327.74
	1767	0.884	-7.33859E-001	-1.80753E-004	0.00000E+000	-7.33000E-001	-8.62605E-004	10	..........a	-327.74
	1798	0.8995	-7.02676E-001	-1.68053E-004	0.00000E+000	-7.02000E-001	-8.29272E-004	10	..........a	-327.74
	1829	0.915	-6.71909E-001	-1.53348E-004	0.00000E+000	-6.71000E-001	-8.29272E-004	10	..........a	-327.74
	1860	0.9305	-6.40826E-001	-1.31626E-004	0.00000E+000	-6.40000E-001	-8.62605E-004	10	..........a	-327.74
	1891	0.946	-6.09909E-001	-9.20231E-005	0.00000E+000	-6.09000E-001	-9.62605E-004	10	..........a	-327.74
	1922	0.9615	-5.78826E-001	-2.56848E-005	0.00000E+000	-5.78000E-001	-9.29272E-004	10	..........a	-327.74
	1953	0.977	-5.47876E-001	5.80318E-005	0.00000E+000	-5.47000E-001	-8.95939E-004	10	..........a	-327.74
	1984	0.9925	-5.16809E-001	1.45926E-004	0.00000E+000	-5.16000E-001	-8.62605E-004	10	..........a	-327.74
	2015	1.008	-4.85992E-001	2.29643E-004	0.00000E+000	-4.85000E-001	-8.95939E-004	10	..........a	-327.74
	2046	1.0235	-4.54892E-001	2.92305E-004	0.00000E+000	-4.54000E-001	-8.62605E-004	10	..........a	-327.74
	2077	1.039	-4.23959E-001	3.08346E-004	0.00000E+000	-4.23000E-001	-9.29272E-004	10	..........a	-327.74
	2108	1.0545	-3.92909E-001	2.96315E-004	0.00000E+000	-3.92000E-001	-8.62605E-004	10	..........a	-327.74
	2139	1.07	-3.61976E-001	2.76096E-004	0.00000E+000	-3.61000E-001	-8.62605E-004	10	..........a	-327.74
	2170	1.0855	-3.30909E-001	2.60556E-004	0.00000E+000	-3.30000E-001	-8.95939E-004	10	..........a	-327.74
	2201	1.101	-2.99959E-001	2.46854E-004	0.00000E+000	-2.99000E-001	-9.62605E-004	10	..........a	-327.74
	2232	1.1165	-2.68976E-001	2.39334E-004	0.00000E+000	-2.68000E-001	-8.29272E-004	10	..........a	-327.74
	2263	1.132	-2.37959E-001	2.28306E-004	0.00000E+000	-2.37000E-001	-9.62605E-004	10	..........a	-327.74
	2294	1.1475	-2.06992E-001	2.17778E-004	0.00000E+000	-2.06000E-001	-8.62605E-004	10	..........a	-327.74
	2325	1.163	-1.76076E-001	2.05747E-004	0.00000E+000	-1.75000E-001	-9.29272E-004	10	..........a	-327.74
	2356	1.1785	-1.45076E-001	1.91043E-004	0.00000E+000	-1.44000E-001	-8.95939E-004	10	..........a	-327.74
	2387	1.194	-1.14009E-001	1.81351E-004	0.00000E+000	-1.13000E-001	-8.29272E-004	10	..........a	-327.74
	2418	1.2095	-8.31590E-002	1.71492E-004	0.00000E+000	-8.20000E-002	-8.95939E-004	10	..........a	-327.74
	2449	1.225	-5.21590E-002	1.60965E-004	0.00000E+000	-5.10000E-002	-8.95939E-004	10	..........a	-327.74
	2480	1.2405	-2.11257E-002	1.53278E-004	0.00000E+000	-2.00000E-002	-7.29272E-004	10	..........a	-327.74
	2511	1.256	9.90767E-003	1.50605E-004	0.00000E+000	1.10000E-002	-8.95939E-004	10	..........a	-327.74
	2542	1.2715	4.09743E-002	1.46929E-004	0.00000E+000	4.20000E-002	-9.29272E-004	10	..........a	-327.74
	2573	1.287	7.19077E-002	1.45759E-004	0.00000E+000	7.30000E-002	-8.29272E-004	10	..........a	-327.74
	2604	1.3025	1.02858E-001	1.44756E-004	0.00000E+000	1.04000E-001	-8.62605E-004	10	..........a	-327.74
	2635	1.318	1.33891E-001	1.42584E-004	0.00000E+000	1.35000E-001	-8.95939E-004	10	..........a	-327.74
	2666	1.3335	1.64841E-001	1.46594E-004	0.00000E+000	1.66000E-001	-8.29272E-004	10	..........a	-327.74
	2697	1.349	1.95841E-001	1.41916E-004	0.00000E+000	1.97000E-001	-8.62605E-004	10	..........a	-327.74
	2728	1.3645	2.26824E-001	1.41916E-004	0.00000E+000	2.28000E-001	-9.29272E-004	10	..........a	-327.74
	2759	1.38	2.57708E-001	1.36401E-004	0.00000E+000	2.59000E-001	-8.29272E-004	10	..........a	-327.74
	2790	1.3955	2.88774E-001	1.31555E-004	0.00000E+000	2.90000E-001	-8.95939E-004	10	..........a	-327.74
	2821	1.411	3.19774E-001	1.25373E-004	0.00000E+000	3.21000E-001	-8.95939E-004	10	..........a	-327.74
	2852	1.4265	3.50808E-001	1.19524E-004	0.00000E+000	3.52000E-001	-8.95939E-004	10	..........a	-327.74
	2883	1.442	3.81824E-001	1.14344E-004	0.00000E+000	3.83000E-001	-8.29272E-004	10	..........a	-327.74
	2914	1.4575	4.12774E-001	1.11002E-004	0.00000E+000	4.14000E-001	-7.95939E-004	10	..........a	-327.74
	2945	1.473	4.43724E-001	1.07326E-004	0.00000E+000	4.45000E-001	-7.62605E-004	10	..........a	-327.74
	2976	1.4885	4.74724E-001	1.04318E-004	0.00000E+000	4.76000E-001	-7.95939E-004	10	..........a	-327.74
	3000	1.5005	4.98808E-001	1.03316E-004	0.00000E+000	5.00000E-001	-8.95939E-004	10	..........a	-327.74
CURVE2	TABLE
	Pt	T	Vf	Im	Vu	Sig	Ach	IERange	Over	Temp
	#	s	V vs. Ref.	A	V	V	V	#	bits	deg C
	3001	1.501	4.98724E-001	9.98066E-005	0.00000E+000	5.00000E-001	-9.29272E-004	10	..........a	-327.74