File: data/02-SI/Figures_S9_S11_RDE/15btmapaq-rde/1mkcl-5mmolar15btmapaq-nitrogen-rde600mvpers-50mvpers.DTA
EXPLAIN
TAG	LSV
TITLE	LABEL	Linear Sweep Voltammetry	Test &Identifier
DATE	LABEL	1/31/2023	Date
TIME	LABEL	18:25:22	Time
NOTES	NOTES	1	&Notes...

PSTAT	PSTAT	REF3000-21108	Potentiostat
VINIT	POTEN	5.00000E-001	F	&Initial E (V)
VFINAL	POTEN	-1.00000E+000	F	&Final E (V)
SCANRATE	QUANT	4.99999E+001	&Scan Rate (mV/s)
STEPSIZE	QUANT	1.00000E-001	St&ep Size (mV)
IMODE	SELECTOR	0	I/E Range &Mode
IRANGE	QUANT	1.00000E+002	&Max Current (mA)
AREA	QUANT	1.00000E+000	Electrode &Area (cm^2)
ELECTRODETYPE	SELECTOR	0	Electrode Type
STRIPPING	TOGGLE	F	Used for Stripping
POLARITY	TOGGLE	F	Signal Polarity
CONDIT	TWOPARAM	F	1.50000E+001	0.00000E+000	Conditionin&g	Time(s)	E(V)
DELAY	TWOPARAM	F	3.00000E+001	0.00000E+000	Init. De&lay	Time(s)	Stab.(mV/s)
EQDELAY	QUANT	0.00000E+000	Equil. &Time (s)
IRCOMP	SELECTOR	0	IRCom&p
PFCOR	QUANT	5.00000E+001	PF Corr. (ohm)
SAMPLINGMODE	SELECTOR	1	Sampling &Mode
EOC	QUANT	0	Open Circuit (V)
PSTATMODEL	IQUANT	5	Pstat Model
PSTATSECTION	LABEL	REF3000-21108	Pstat Section
PSTATSERIALNO	LABEL	21108	Pstat Serial Number
CTRLMODE	IQUANT	1	Control Mode
ELECTROMETER	IQUANT	0	RE=0 or CS=1
IESTAB	IQUANT	2	I/E Stability
CASPEED	IQUANT	4	Control Amp Speed
CONVENTION	IQUANT	1	Current Convention
ICHRANGE	IQUANT	2	Ich Range
ICHRANGEMODE	TOGGLE	F	Ich Auto Range
ICHOFFSETENABLE	TOGGLE	F	Ich Offset Enable
ICHOFFSET	QUANT	0	Ich Offset (V)
ICHFILTER	IQUANT	2	Ich Filter
VCHRANGE	IQUANT	2	Vch Range
VCHRANGEMODE	TOGGLE	T	Vch Auto Range
VCHOFFSETENABLE	TOGGLE	F	Vch Offset Enable
VCHOFFSET	QUANT	0	Vch Offset (V)
VCHFILTER	IQUANT	2	Vch Filter
ACHRANGE	IQUANT	2	Ach Range
ACHOFFSETENABLE	TOGGLE	F	Ach Offset Enable
ACHOFFSET	QUANT	0	Ach Offset (V)
ACHFILTER	IQUANT	0	Ach Filter
IERANGELOWERLIMIT	IQUANT	2	I/E Range Lower Limit
IERANGEMODE	TOGGLE	T	I/E AutoRange
IERANGE	IQUANT	11	I/E Range
POSFEEDENABLE	TOGGLE	F	Positive Feedback IR Comp
POSFEEDRESISTANCE	QUANT	0	Positive Feedback Resistance (ohm)
ACHSELECT	IQUANT	0	Ach Select
SENSECABLEID	IQUANT	14	Sense Cable ID
PWRCABLEID	IQUANT	7	Power Cable ID
DCCALDATE	LABEL	11/9/2022	DC Calibration Date
ACCALDATE	LABEL	11/9/2022	AC Calibration Date
THERMOSELECT	IQUANT	1	Thermo Select
FRAMEWORKVERSION	LABEL	7.8.2	Framework Version
INSTRUMENTVERSION	LABEL	4.40	Instrument Version
COMPLIANCEVOLTAGE	IQUANT	0	Compliance Voltage
CURVE	TABLE	15001
	Pt	T	Vf	Im	Vu	Sig	Ach	IERange	Over	Cycle	Temp
	#	s	V vs. Ref.	A	V	V	V	#	bits	#	deg C
	0	0.002	4.99750E-001	-5.42385E-005	0.00000E+000	5.00000E-001	-8.87605E-004	11	..........a	0	-327.74
	158	0.318	4.83085E-001	2.23261E-006	0.00000E+000	4.84200E-001	-9.87605E-004	8	..........a	0	-327.74
	316	0.634	4.67210E-001	1.18770E-006	0.00000E+000	4.68400E-001	-9.04272E-004	8	..........a	0	-327.74
	474	0.95	4.51368E-001	8.21061E-007	0.00000E+000	4.52600E-001	-9.29272E-004	8	..........a	0	-327.74
	632	1.266	4.35756E-001	5.71914E-007	0.00000E+000	4.36800E-001	-9.04272E-004	8	..........a	0	-327.74
	790	1.582	4.19835E-001	3.46932E-007	0.00000E+000	4.21000E-001	-9.29272E-004	8	..........a	0	-327.74
	948	1.898	4.04056E-001	4.11927E-007	0.00000E+000	4.05200E-001	-9.29272E-004	8	..........a	0	-327.74
	1106	2.214	3.88272E-001	2.79854E-007	0.00000E+000	3.89400E-001	-9.29272E-004	8	..........a	0	-327.74
	1264	2.53	3.72610E-001	1.34866E-007	0.00000E+000	3.73600E-001	-9.37606E-004	8	..........a	0	-327.74
	1422	2.846	3.56702E-001	1.98611E-007	0.00000E+000	3.57800E-001	-9.04272E-004	8	..........a	0	-327.74
	1580	3.162	3.40814E-001	1.24033E-007	0.00000E+000	3.42000E-001	-8.95939E-004	8	..........a	0	-327.74
	1738	3.478	3.25014E-001	3.15407E-008	0.00000E+000	3.26200E-001	-8.87605E-004	8	..........a	0	-327.74
	1896	3.794	3.09385E-001	-5.84521E-008	0.00000E+000	3.10400E-001	-9.29272E-004	8	..........a	0	-327.74
	2054	4.11	2.93493E-001	-3.17875E-008	0.00000E+000	2.94600E-001	-8.87605E-004	8	..........a	0	-327.74
	2212	4.426	2.77652E-001	3.11241E-008	0.00000E+000	2.78800E-001	-9.45939E-004	8	..........a	0	-327.74
	2370	4.742	2.61906E-001	-4.09535E-008	0.00000E+000	2.63000E-001	-9.79272E-004	8	..........a	0	-327.74
	2528	5.058	2.46197E-001	-8.42833E-008	0.00000E+000	2.47200E-001	-8.79272E-004	8	..........a	0	-327.74
	2686	5.374	2.30198E-001	-1.13448E-007	0.00000E+000	2.31400E-001	-9.04272E-004	8	..........a	0	-327.74
	2844	5.69	2.14388E-001	-5.97020E-008	0.00000E+000	2.15600E-001	-9.20939E-004	8	..........a	0	-327.74
	3002	6.006	1.98595E-001	-8.05336E-008	0.00000E+000	1.99800E-001	-9.29272E-004	8	..........a	0	-327.74
	3160	6.322	1.82806E-001	-1.28446E-007	0.00000E+000	1.84000E-001	-9.29272E-004	8	..........a	0	-327.74
	3318	6.638	1.67014E-001	-9.59490E-008	0.00000E+000	1.68200E-001	-8.62605E-004	8	..........a	0	-327.74
	3476	6.954	1.51215E-001	-2.10940E-007	0.00000E+000	1.52400E-001	-9.70939E-004	8	..........a	0	-327.74
	3634	7.27	1.35446E-001	-1.76776E-007	0.00000E+000	1.36600E-001	-8.45939E-004	8	..........a	0	-327.74
	3792	7.586	1.19641E-001	-1.63860E-007	0.00000E+000	1.20800E-001	-9.12605E-004	8	..........a	0	-327.74
	3950	7.902	1.03853E-001	-1.56361E-007	0.00000E+000	1.05000E-001	-9.04272E-004	8	..........a	0	-327.74
	4108	8.218	8.80576E-002	-1.98441E-007	0.00000E+000	8.92000E-002	-9.37606E-004	8	..........a	0	-327.74
	4266	8.534	7.22606E-002	-2.74685E-007	0.00000E+000	7.34000E-002	-8.70939E-004	8	..........a	0	-327.74
	4424	8.85	5.64776E-002	-1.65527E-007	0.00000E+000	5.76000E-002	-8.95939E-004	8	..........a	0	-327.74
	4582	9.166	4.06747E-002	-2.55103E-007	0.00000E+000	4.18000E-002	-8.54272E-004	8	..........a	0	-327.74
	4740	9.482	2.48968E-002	-2.53436E-007	0.00000E+000	2.60000E-002	-8.45939E-004	8	..........a	0	-327.74
	4898	9.798	9.07218E-003	-2.55936E-007	0.00000E+000	1.02000E-002	-8.87605E-004	8	..........a	0	-327.74
	5056	10.114	-6.70928E-003	-1.82192E-007	0.00000E+000	-5.60001E-003	-8.29272E-004	8	..........a	0	-327.74
	5214	10.43	-2.24955E-002	-2.64685E-007	0.00000E+000	-2.14000E-002	-9.04272E-004	8	..........a	0	-327.74
	5372	10.746	-3.82949E-002	-3.14265E-007	0.00000E+000	-3.72000E-002	-9.04272E-004	8	..........a	0	-327.74
	5530	11.062	-5.40803E-002	-4.42588E-007	0.00000E+000	-5.30000E-002	-8.54272E-004	8	..........a	0	-327.74
	5688	11.378	-6.98744E-002	-4.18423E-007	0.00000E+000	-6.88000E-002	-8.54272E-004	8	..........a	0	-327.74
	5846	11.694	-8.56657E-002	-6.76319E-007	0.00000E+000	-8.46000E-002	-9.20939E-004	8	..........a	0	-327.74
	6004	12.01	-1.01449E-001	-7.29232E-007	0.00000E+000	-1.00400E-001	-9.04272E-004	8	..........a	0	-327.74
	6162	12.326	-1.17245E-001	-9.06301E-007	0.00000E+000	-1.16200E-001	-9.37606E-004	8	..........a	0	-327.74
	6320	12.642	-1.33038E-001	-1.24794E-006	0.00000E+000	-1.32000E-001	-9.20939E-004	8	..........a	0	-327.74
	6478	12.958	-1.48821E-001	-1.66166E-006	0.00000E+000	-1.47800E-001	-8.79272E-004	8	..........a	0	-327.74
	6636	13.274	-1.64637E-001	-2.34035E-006	0.00000E+000	-1.63600E-001	-9.37606E-004	8	..........a	0	-327.74
	6794	13.59	-1.80412E-001	-3.13112E-006	0.00000E+000	-1.79400E-001	-8.87605E-004	8	..........a	0	-327.74
	6952	13.906	-1.96231E-001	-4.46518E-006	0.00000E+000	-1.95200E-001	-9.04272E-004	8	..........a	0	-327.74
	7110	14.222	-2.12001E-001	-6.04964E-006	0.00000E+000	-2.11000E-001	-9.12605E-004	8	..........a	0	-327.74
	7268	14.538	-2.27788E-001	-8.01031E-006	0.00000E+000	-2.26800E-001	-8.29272E-004	8	..........a	0	-327.74
	7426	14.854	-2.43583E-001	-1.04672E-005	0.00000E+000	-2.42600E-001	-9.54272E-004	8	..........a	0	-327.74
	7584	15.17	-2.59371E-001	-1.27670E-005	0.00000E+000	-2.58400E-001	-9.62605E-004	8	..........a	0	-327.74
	7742	15.486	-2.75148E-001	-1.50543E-005	0.00000E+000	-2.74200E-001	-9.45939E-004	8	..........a	0	-327.74
	7900	15.802	-2.90807E-001	-1.71575E-005	0.00000E+000	-2.90000E-001	-8.87605E-004	8	..........a	0	-327.74
	8058	16.118	-3.06619E-001	-1.90428E-005	0.00000E+000	-3.05800E-001	-8.54272E-004	8	..........a	0	-327.74
	8216	16.434	-3.22469E-001	-2.08318E-005	0.00000E+000	-3.21600E-001	-9.12605E-004	8	..........a	0	-327.74
	8374	16.75	-3.38219E-001	-2.23983E-005	0.00000E+000	-3.37400E-001	-9.12605E-004	8	..........a	0	-327.74
	8532	17.066	-3.54040E-001	-2.40440E-005	0.00000E+000	-3.53200E-001	-9.87605E-004	8	..........a	0	-327.74
	8690	17.382	-3.69711E-001	-2.55210E-005	0.00000E+000	-3.69000E-001	-9.20939E-004	8	..........a	0	-327.74
	8848	17.698	-3.85598E-001	-2.76921E-005	0.00000E+000	-3.84800E-001	-8.70939E-004	8	..........a	0	-327.74
	9006	18.014	-4.01469E-001	-3.10618E-005	0.00000E+000	-4.00600E-001	-9.45939E-004	8	..........a	0	-327.74
	9164	18.33	-4.17203E-001	-3.66351E-005	0.00000E+000	-4.16400E-001	-9.04272E-004	8	..........a	0	-327.74
	9322	18.646	-4.33015E-001	-4.43991E-005	0.00000E+000	-4.32200E-001	-9.45939E-004	8	..........a	0	-327.74
	9480	18.962	-4.48811E-001	-5.32738E-005	0.00000E+000	-4.48000E-001	-9.70939E-004	8	..........a	0	-327.74
	9638	19.278	-4.64536E-001	-6.44279E-005	0.00000E+000	-4.63800E-001	-9.12605E-004	8	..........a	0	-327.74
	9796	19.594	-4.80369E-001	-7.79693E-005	0.00000E+000	-4.79600E-001	-9.54272E-004	8	..........a	0	-327.74
	9954	19.91	-4.96036E-001	-9.49517E-005	0.00000E+000	-4.95400E-001	-9.04272E-004	8	..........a	0	-327.74
	10112	20.226	-5.11936E-001	-1.16488E-004	0.00000E+000	-5.11200E-001	-9.04272E-004	8	..........a	0	-327.74
	10270	20.542	-5.27661E-001	-1.44114E-004	0.00000E+000	-5.27000E-001	-9.87605E-004	8	..........a	0	-327.74
	10428	20.858	-5.43315E-001	-1.76153E-004	0.00000E+000	-5.42800E-001	-9.37606E-004	8	..........a	0	-327.74
	10586	21.174	-5.59190E-001	-2.06214E-004	0.00000E+000	-5.58600E-001	-9.70939E-004	8	..........a	0	-327.74
	10744	21.49	-5.74773E-001	-2.30453E-004	0.00000E+000	-5.74400E-001	-9.62605E-004	8	..........a	0	-327.74
	10902	21.806	-5.90640E-001	-2.48401E-004	0.00000E+000	-5.90200E-001	-9.62605E-004	8	..........a	0	-327.74
	11060	22.122	-6.06494E-001	-2.58778E-004	0.00000E+000	-6.06000E-001	-9.79272E-004	8	..........a	0	-327.74
	11218	22.438	-6.22369E-001	-2.62882E-004	0.00000E+000	-6.21800E-001	-9.20939E-004	8	..........a	0	-327.74
	11376	22.754	-6.38333E-001	-2.67257E-004	0.00000E+000	-6.37600E-001	-9.29272E-004	9	..........a	0	-327.74
	11534	23.07	-6.54142E-001	-2.70182E-004	0.00000E+000	-6.53400E-001	-8.29272E-004	9	..........a	0	-327.74
	11692	23.386	-6.69725E-001	-2.70956E-004	0.00000E+000	-6.69200E-001	-9.04272E-004	9	..........a	0	-327.74
	11850	23.702	-6.85721E-001	-2.72155E-004	0.00000E+000	-6.85000E-001	-8.12605E-004	9	..........a	0	-327.74
	12008	24.018	-7.01300E-001	-2.72502E-004	0.00000E+000	-7.00800E-001	-8.54272E-004	9	..........a	0	-327.74
	12166	24.334	-7.17133E-001	-2.74257E-004	0.00000E+000	-7.16600E-001	-9.04272E-004	9	..........a	0	-327.74
	12324	24.65	-7.33087E-001	-2.75381E-004	0.00000E+000	-7.32400E-001	-8.79272E-004	9	..........a	0	-327.74
	12482	24.966	-7.48775E-001	-2.75013E-004	0.00000E+000	-7.48200E-001	-9.20939E-004	9	..........a	0	-327.74
	12640	25.282	-7.64742E-001	-2.75895E-004	0.00000E+000	-7.64000E-001	-8.45939E-004	9	..........a	0	-327.74
	12798	25.598	-7.80354E-001	-2.75021E-004	0.00000E+000	-7.79800E-001	-8.95939E-004	9	..........a	0	-327.74
	12956	25.914	-7.96129E-001	-2.74721E-004	0.00000E+000	-7.95600E-001	-9.20939E-004	9	..........a	0	-327.74
	13114	26.23	-8.12004E-001	-2.74470E-004	0.00000E+000	-8.11400E-001	-8.70939E-004	9	..........a	0	-327.74
	13272	26.546	-8.27629E-001	-2.75836E-004	0.00000E+000	-8.27200E-001	-8.70939E-004	9	..........a	0	-327.74
	13430	26.862	-8.43496E-001	-2.76313E-004	0.00000E+000	-8.43000E-001	-8.95939E-004	9	..........a	0	-327.74
	13588	27.178	-8.59408E-001	-2.76367E-004	0.00000E+000	-8.58800E-001	-8.62605E-004	9	..........a	0	-327.74
	13746	27.494	-8.75137E-001	-2.75820E-004	0.00000E+000	-8.74600E-001	-8.20939E-004	9	..........a	0	-327.74
	13904	27.81	-8.90950E-001	-2.77554E-004	0.00000E+000	-8.90400E-001	-9.12605E-004	9	..........a	0	-327.74
	14062	28.126	-9.06567E-001	-2.78882E-004	0.00000E+000	-9.06200E-001	-8.87605E-004	9	..........a	0	-327.74
	14220	28.442	-9.22462E-001	-2.78540E-004	0.00000E+000	-9.22000E-001	-8.54272E-004	9	..........a	0	-327.74
	14378	28.758	-9.38350E-001	-2.78206E-004	0.00000E+000	-9.37800E-001	-8.79272E-004	9	..........a	0	-327.74
	14536	29.074	-9.53937E-001	-2.78995E-004	0.00000E+000	-9.53600E-001	-8.54272E-004	9	..........a	0	-327.74
	14694	29.39	-9.69871E-001	-2.79626E-004	0.00000E+000	-9.69400E-001	-8.70939E-004	9	..........a	0	-327.74
	14852	29.706	-9.85704E-001	-2.79534E-004	0.00000E+000	-9.85200E-001	-8.95939E-004	9	..........a	0	-327.74
	15000	30.002	-1.00030E+000	-2.79296E-004	0.00000E+000	-1.00000E+000	-8.87605E-004	9	..........a	0	-327.74