File: data/02-SI/Figures_S9_S11_RDE/15btmapaq-rde/1mkcl-15btmapaq-nitrogen-800mvpers.DTA
EXPLAIN
TAG	CV
TITLE	LABEL	Cyclic Voltammetry	Test &Identifier
DATE	LABEL	1/31/2023	Date
TIME	LABEL	18:19:51	Time
NOTES	NOTES	1	&Notes...

PSTAT	PSTAT	REF3000-21108	Potentiostat
VINIT	POTEN	5.00000E-001	F	Initial &E (V)
VLIMIT1	POTEN	-1.00000E+000	F	Scan Limit &1 (V)
VLIMIT2	POTEN	5.00000E-001	F	Scan Limit &2 (V)
VFINAL	POTEN	5.00000E-001	F	Final &E (V)
SCANRATE	QUANT	7.99998E+002	&Scan Rate (mV/s)
STEPSIZE	QUANT	1.00000E+000	St&ep Size (mV)
CYCLES	IQUANT	1	C&ycles (#)
IMODE	SELECTOR	1	I/E Range &Mode
IRANGE	QUANT	1.00000E+001	&Max Current (mA)
AREA	QUANT	1.00000E+000	Electrode &Area (cm^2)
ELECTRODETYPE	SELECTOR	0	Electrode Type
STRIPPING	TOGGLE	F	Used for Stripping
POLARITY	TOGGLE	F	Signal Polarity
CONDIT	TWOPARAM	F	1.50000E+001	0.00000E+000	Conditionin&g	Time(s)	E(V)
DELAY	TWOPARAM	F	5.00000E+000	0.00000E+000	Init. De&lay	Time(s)	Stab.(mV/s)
EQDELAY	QUANT	0.00000E+000	Equil. &Time (s)
IRCOMP	SELECTOR	0	IRCom&p
PFCOR	QUANT	5.00000E+001	PF Corr. (ohm)
SAMPLINGMODE	SELECTOR	1	Sampling &Mode
EOC	QUANT	0	Open Circuit (V)
PSTATMODEL	IQUANT	5	Pstat Model
PSTATSECTION	LABEL	REF3000-21108	Pstat Section
PSTATSERIALNO	LABEL	21108	Pstat Serial Number
CTRLMODE	IQUANT	1	Control Mode
ELECTROMETER	IQUANT	0	RE=0 or CS=1
IESTAB	IQUANT	2	I/E Stability
CASPEED	IQUANT	4	Control Amp Speed
CONVENTION	IQUANT	1	Current Convention
ICHRANGE	IQUANT	2	Ich Range
ICHRANGEMODE	TOGGLE	F	Ich Auto Range
ICHOFFSETENABLE	TOGGLE	F	Ich Offset Enable
ICHOFFSET	QUANT	0	Ich Offset (V)
ICHFILTER	IQUANT	1	Ich Filter
VCHRANGE	IQUANT	2	Vch Range
VCHRANGEMODE	TOGGLE	F	Vch Auto Range
VCHOFFSETENABLE	TOGGLE	F	Vch Offset Enable
VCHOFFSET	QUANT	0	Vch Offset (V)
VCHFILTER	IQUANT	1	Vch Filter
ACHRANGE	IQUANT	2	Ach Range
ACHOFFSETENABLE	TOGGLE	F	Ach Offset Enable
ACHOFFSET	QUANT	0	Ach Offset (V)
ACHFILTER	IQUANT	0	Ach Filter
IERANGELOWERLIMIT	IQUANT	2	I/E Range Lower Limit
IERANGEMODE	TOGGLE	F	I/E AutoRange
IERANGE	IQUANT	10	I/E Range
POSFEEDENABLE	TOGGLE	F	Positive Feedback IR Comp
POSFEEDRESISTANCE	QUANT	0	Positive Feedback Resistance (ohm)
ACHSELECT	IQUANT	0	Ach Select
SENSECABLEID	IQUANT	14	Sense Cable ID
PWRCABLEID	IQUANT	7	Power Cable ID
DCCALDATE	LABEL	11/9/2022	DC Calibration Date
ACCALDATE	LABEL	11/9/2022	AC Calibration Date
THERMOSELECT	IQUANT	1	Thermo Select
FRAMEWORKVERSION	LABEL	7.8.2	Framework Version
INSTRUMENTVERSION	LABEL	4.40	Instrument Version
COMPLIANCEVOLTAGE	IQUANT	0	Compliance Voltage
CURVE1	TABLE
	Pt	T	Vf	Im	Vu	Sig	Ach	IERange	Over	Temp
	#	s	V vs. Ref.	A	V	V	V	#	bits	deg C
	0	0.00125	4.98738E-001	5.35202E-005	0.00000E+000	5.00000E-001	-9.04272E-004	10	..........a	-327.74
	32	0.04125	4.66791E-001	3.51393E-005	0.00000E+000	4.68000E-001	-9.66772E-004	10	..........a	-327.74
	64	0.08125	4.34911E-001	2.63165E-005	0.00000E+000	4.36000E-001	-9.66772E-004	10	..........a	-327.74
	96	0.12125	4.02891E-001	2.05682E-005	0.00000E+000	4.04000E-001	-9.41772E-004	10	..........a	-327.74
	128	0.16125	3.70784E-001	1.75605E-005	0.00000E+000	3.72000E-001	-9.16772E-004	10	..........a	-327.74
	160	0.20125	3.38791E-001	1.55553E-005	0.00000E+000	3.40000E-001	-1.02927E-003	10	..........a	-327.74
	192	0.24125	3.06918E-001	1.13444E-005	0.00000E+000	3.08000E-001	-9.54272E-004	10	..........a	-327.74
	224	0.28125	2.74884E-001	9.67339E-006	0.00000E+000	2.76000E-001	-8.91772E-004	10	..........a	-327.74
	256	0.32125	2.42824E-001	8.73764E-006	0.00000E+000	2.44000E-001	-9.41772E-004	10	..........a	-327.74
	288	0.36125	2.10864E-001	5.99722E-006	0.00000E+000	2.12000E-001	-1.00427E-003	10	..........a	-327.74
	320	0.40125	1.78998E-001	5.66302E-006	0.00000E+000	1.80000E-001	-1.02927E-003	10	..........a	-327.74
	352	0.44125	1.47004E-001	3.25679E-006	0.00000E+000	1.48000E-001	-9.29272E-004	10	..........a	-327.74
	384	0.48125	1.14924E-001	7.83728E-007	0.00000E+000	1.16000E-001	-1.01677E-003	10	..........a	-327.74
	416	0.52125	8.29510E-002	-1.62250E-006	0.00000E+000	8.40000E-002	-9.91772E-004	10	..........a	-327.74
	448	0.56125	5.10643E-002	-2.62509E-006	0.00000E+000	5.20000E-002	-9.41772E-004	10	..........a	-327.74
	480	0.60125	1.90777E-002	-6.86744E-007	0.00000E+000	2.00000E-002	-9.29272E-004	10	..........a	-327.74
	512	0.64125	-1.31157E-002	-3.96188E-006	0.00000E+000	-1.20000E-002	-9.41772E-004	10	..........a	-327.74
	544	0.68125	-4.50823E-002	-4.29608E-006	0.00000E+000	-4.40000E-002	-8.66772E-004	10	..........a	-327.74
	576	0.72125	-7.69357E-002	-3.56085E-006	0.00000E+000	-7.60000E-002	-9.54272E-004	10	..........a	-327.74
	608	0.76125	-1.08989E-001	-4.69712E-006	0.00000E+000	-1.08000E-001	-7.66772E-004	10	..........a	-327.74
	640	0.80125	-1.41042E-001	-5.43236E-006	0.00000E+000	-1.40000E-001	-9.16772E-004	10	..........a	-327.74
	672	0.84125	-1.72976E-001	-7.63806E-006	0.00000E+000	-1.72000E-001	-9.54272E-004	10	..........a	-327.74
	704	0.88125	-2.04882E-001	-8.03910E-006	0.00000E+000	-2.04000E-001	-9.04272E-004	10	..........a	-327.74
	736	0.92125	-2.36842E-001	-1.10469E-005	0.00000E+000	-2.36000E-001	-9.04272E-004	10	..........a	-327.74
	768	0.96125	-2.68969E-001	-1.27847E-005	0.00000E+000	-2.68000E-001	-7.41772E-004	10	..........a	-327.74
	800	1.00125	-3.01009E-001	-1.46562E-005	0.00000E+000	-3.00000E-001	-9.41772E-004	10	..........a	-327.74
	832	1.04125	-3.32836E-001	-1.67951E-005	0.00000E+000	-3.32000E-001	-8.54272E-004	10	..........a	-327.74
	864	1.08125	-3.64836E-001	-2.20754E-005	0.00000E+000	-3.64000E-001	-9.29272E-004	10	..........a	-327.74
	896	1.12125	-3.96936E-001	-3.08314E-005	0.00000E+000	-3.96000E-001	-8.79272E-004	10	..........a	-327.74
	928	1.16125	-4.28889E-001	-6.08424E-005	0.00000E+000	-4.28000E-001	-9.29272E-004	10	..........a	-327.74
	960	1.20125	-4.60836E-001	-1.07296E-004	0.00000E+000	-4.60000E-001	-9.04272E-004	10	..........a	-327.74
	992	1.24125	-4.92809E-001	-1.54084E-004	0.00000E+000	-4.92000E-001	-8.66772E-004	10	..........a	-327.74
	1024	1.28125	-5.24882E-001	-2.28276E-004	0.00000E+000	-5.24000E-001	-9.41772E-004	10	..........a	-327.74
	1056	1.32125	-5.56862E-001	-3.54068E-004	0.00000E+000	-5.56000E-001	-9.54272E-004	10	..........a	-327.74
	1088	1.36125	-5.88789E-001	-4.37885E-004	0.00000E+000	-5.88000E-001	-9.41772E-004	10	..........a	-327.74
	1120	1.40125	-6.20829E-001	-4.28126E-004	0.00000E+000	-6.20000E-001	-9.04272E-004	10	..........a	-327.74
	1152	1.44125	-6.52876E-001	-3.78865E-004	0.00000E+000	-6.52000E-001	-9.54272E-004	10	..........a	-327.74
	1184	1.48125	-6.84829E-001	-3.38227E-004	0.00000E+000	-6.84000E-001	-9.41772E-004	10	..........a	-327.74
	1216	1.52125	-7.16782E-001	-3.04606E-004	0.00000E+000	-7.16000E-001	-9.54272E-004	10	..........a	-327.74
	1248	1.56125	-7.48796E-001	-2.80009E-004	0.00000E+000	-7.48000E-001	-9.16772E-004	10	..........a	-327.74
	1280	1.60125	-7.80842E-001	-2.62030E-004	0.00000E+000	-7.80000E-001	-8.91772E-004	10	..........a	-327.74
	1312	1.64125	-8.12802E-001	-2.45854E-004	0.00000E+000	-8.12000E-001	-9.16772E-004	10	..........a	-327.74
	1344	1.68125	-8.44762E-001	-2.31684E-004	0.00000E+000	-8.44000E-001	-9.16772E-004	10	..........a	-327.74
	1376	1.72125	-8.76756E-001	-2.22862E-004	0.00000E+000	-8.76000E-001	-8.66772E-004	10	..........a	-327.74
	1408	1.76125	-9.08649E-001	-2.12501E-004	0.00000E+000	-9.08000E-001	-9.29272E-004	10	..........a	-327.74
	1440	1.80125	-9.40756E-001	-2.05951E-004	0.00000E+000	-9.40000E-001	-9.41772E-004	10	..........a	-327.74
	1472	1.84125	-9.72722E-001	-2.00136E-004	0.00000E+000	-9.72000E-001	-9.41772E-004	10	..........a	-327.74
	1504	1.88125	-9.96649E-001	-1.87036E-004	0.00000E+000	-9.96000E-001	-8.54272E-004	10	..........a	-327.74
	1536	1.92125	-9.64682E-001	-1.66649E-004	0.00000E+000	-9.64000E-001	-8.79272E-004	10	..........a	-327.74
	1568	1.96125	-9.32776E-001	-1.53549E-004	0.00000E+000	-9.32000E-001	-9.16772E-004	10	..........a	-327.74
	1600	2.00125	-9.00722E-001	-1.47533E-004	0.00000E+000	-9.00000E-001	-9.41772E-004	10	..........a	-327.74
	1632	2.04125	-8.68769E-001	-1.40649E-004	0.00000E+000	-8.68000E-001	-8.91772E-004	10	..........a	-327.74
	1664	2.08125	-8.36762E-001	-1.35970E-004	0.00000E+000	-8.36000E-001	-8.41772E-004	10	..........a	-327.74
	1696	2.12125	-8.04776E-001	-1.28618E-004	0.00000E+000	-8.04000E-001	-9.79272E-004	10	..........a	-327.74
	1728	2.16125	-7.72742E-001	-1.25543E-004	0.00000E+000	-7.72000E-001	-8.91772E-004	10	..........a	-327.74
	1760	2.20125	-7.40802E-001	-1.20062E-004	0.00000E+000	-7.40000E-001	-9.16772E-004	10	..........a	-327.74
	1792	2.24125	-7.08789E-001	-1.13913E-004	0.00000E+000	-7.08000E-001	-9.29272E-004	10	..........a	-327.74
	1824	2.28125	-6.76836E-001	-1.07095E-004	0.00000E+000	-6.76000E-001	-9.41772E-004	10	..........a	-327.74
	1856	2.32125	-6.44822E-001	-9.50643E-005	0.00000E+000	-6.44000E-001	-8.79272E-004	10	..........a	-327.74
	1888	2.36125	-6.12816E-001	-7.29404E-005	0.00000E+000	-6.12000E-001	-9.04272E-004	10	..........a	-327.74
	1920	2.40125	-5.80889E-001	-3.06977E-005	0.00000E+000	-5.80000E-001	-9.79272E-004	10	..........a	-327.74
	1952	2.44125	-5.48816E-001	3.57408E-005	0.00000E+000	-5.48000E-001	-9.91772E-004	10	..........a	-327.74
	1984	2.48125	-5.16829E-001	1.04385E-004	0.00000E+000	-5.16000E-001	-1.01677E-003	10	..........a	-327.74
	2016	2.52125	-4.84902E-001	1.68484E-004	0.00000E+000	-4.84000E-001	-8.66772E-004	10	..........a	-327.74
	2048	2.56125	-4.52922E-001	2.05647E-004	0.00000E+000	-4.52000E-001	-9.41772E-004	10	..........a	-327.74
	2080	2.60125	-4.20849E-001	2.07184E-004	0.00000E+000	-4.20000E-001	-9.91772E-004	10	..........a	-327.74
	2112	2.64125	-3.88876E-001	1.91143E-004	0.00000E+000	-3.88000E-001	-9.66772E-004	10	..........a	-327.74
	2144	2.68125	-3.56869E-001	1.74433E-004	0.00000E+000	-3.56000E-001	-9.66772E-004	10	..........a	-327.74
	2176	2.72125	-3.24996E-001	1.61332E-004	0.00000E+000	-3.24000E-001	-9.91772E-004	10	..........a	-327.74
	2208	2.76125	-2.92849E-001	1.51440E-004	0.00000E+000	-2.92000E-001	-9.29272E-004	10	..........a	-327.74
	2240	2.80125	-2.60909E-001	1.43419E-004	0.00000E+000	-2.60000E-001	-1.02927E-003	10	..........a	-327.74
	2272	2.84125	-2.28949E-001	1.36000E-004	0.00000E+000	-2.28000E-001	-9.66772E-004	10	..........a	-327.74
	2304	2.88125	-1.97022E-001	1.27645E-004	0.00000E+000	-1.96000E-001	-1.02927E-003	10	..........a	-327.74
	2336	2.92125	-1.64882E-001	1.19224E-004	0.00000E+000	-1.64000E-001	-9.91772E-004	10	..........a	-327.74
	2368	2.96125	-1.32936E-001	1.10066E-004	0.00000E+000	-1.32000E-001	-9.54272E-004	10	..........a	-327.74
	2400	3.00125	-1.00996E-001	1.05655E-004	0.00000E+000	-1.00000E-001	-9.91772E-004	10	..........a	-327.74
	2432	3.04125	-6.90623E-002	9.79017E-005	0.00000E+000	-6.80000E-002	-9.41772E-004	10	..........a	-327.74
	2464	3.08125	-3.69090E-002	9.44260E-005	0.00000E+000	-3.60000E-002	-9.41772E-004	10	..........a	-327.74
	2496	3.12125	-5.01566E-003	8.88115E-005	0.00000E+000	-4.00001E-003	-9.79272E-004	10	..........a	-327.74
	2528	3.16125	2.69577E-002	8.62716E-005	0.00000E+000	2.80000E-002	-8.91772E-004	10	..........a	-327.74
	2560	3.20125	5.89443E-002	8.56032E-005	0.00000E+000	6.00000E-002	-1.01677E-003	10	..........a	-327.74
	2592	3.24125	9.10510E-002	8.35312E-005	0.00000E+000	9.20000E-002	-9.66772E-004	10	..........a	-327.74
	2624	3.28125	1.22984E-001	8.15928E-005	0.00000E+000	1.24000E-001	-8.91772E-004	10	..........a	-327.74
	2656	3.32125	1.54951E-001	8.25286E-005	0.00000E+000	1.56000E-001	-8.79272E-004	10	..........a	-327.74
	2688	3.36125	1.86924E-001	8.34643E-005	0.00000E+000	1.88000E-001	-9.29272E-004	10	..........a	-327.74
	2720	3.40125	2.18978E-001	8.38654E-005	0.00000E+000	2.20000E-001	-9.79272E-004	10	..........a	-327.74
	2752	3.44125	2.50944E-001	8.03228E-005	0.00000E+000	2.52000E-001	-9.04272E-004	10	..........a	-327.74
	2784	3.48125	2.82911E-001	7.77161E-005	0.00000E+000	2.84000E-001	-9.79272E-004	10	..........a	-327.74
	2816	3.52125	3.14858E-001	7.41736E-005	0.00000E+000	3.16000E-001	-9.66772E-004	10	..........a	-327.74
	2848	3.56125	3.46971E-001	7.23021E-005	0.00000E+000	3.48000E-001	-9.29272E-004	10	..........a	-327.74
	2880	3.60125	3.78911E-001	6.97622E-005	0.00000E+000	3.80000E-001	-8.66772E-004	10	..........a	-327.74
	2912	3.64125	4.10931E-001	6.67544E-005	0.00000E+000	4.12000E-001	-9.41772E-004	10	..........a	-327.74
	2944	3.68125	4.42784E-001	6.39471E-005	0.00000E+000	4.44000E-001	-9.54272E-004	10	..........a	-327.74
	2976	3.72125	4.74991E-001	6.15409E-005	0.00000E+000	4.76000E-001	-8.79272E-004	10	..........a	-327.74
	3000	3.75125	4.98718E-001	6.14072E-005	0.00000E+000	5.00000E-001	-9.04272E-004	10	..........a	-327.74
CURVE2	TABLE
	Pt	T	Vf	Im	Vu	Sig	Ach	IERange	Over	Temp
	#	s	V vs. Ref.	A	V	V	V	#	bits	deg C
	3001	3.7525	4.98764E-001	5.94021E-005	0.00000E+000	5.00000E-001	-9.04272E-004	10	..........a	-327.74