File: data/02-SI/Figures_S9_S11_RDE/15btmapaq-rde/1mkcl-15btmapaq-nitrogen-600mvpers.DTA
EXPLAIN
TAG	CV
TITLE	LABEL	Cyclic Voltammetry	Test &Identifier
DATE	LABEL	1/31/2023	Date
TIME	LABEL	18:19:08	Time
NOTES	NOTES	1	&Notes...

PSTAT	PSTAT	REF3000-21108	Potentiostat
VINIT	POTEN	5.00000E-001	F	Initial &E (V)
VLIMIT1	POTEN	-1.00000E+000	F	Scan Limit &1 (V)
VLIMIT2	POTEN	5.00000E-001	F	Scan Limit &2 (V)
VFINAL	POTEN	5.00000E-001	F	Final &E (V)
SCANRATE	QUANT	5.99999E+002	&Scan Rate (mV/s)
STEPSIZE	QUANT	1.00000E+000	St&ep Size (mV)
CYCLES	IQUANT	1	C&ycles (#)
IMODE	SELECTOR	1	I/E Range &Mode
IRANGE	QUANT	1.00000E+001	&Max Current (mA)
AREA	QUANT	1.00000E+000	Electrode &Area (cm^2)
ELECTRODETYPE	SELECTOR	0	Electrode Type
STRIPPING	TOGGLE	F	Used for Stripping
POLARITY	TOGGLE	F	Signal Polarity
CONDIT	TWOPARAM	F	1.50000E+001	0.00000E+000	Conditionin&g	Time(s)	E(V)
DELAY	TWOPARAM	F	5.00000E+000	0.00000E+000	Init. De&lay	Time(s)	Stab.(mV/s)
EQDELAY	QUANT	0.00000E+000	Equil. &Time (s)
IRCOMP	SELECTOR	0	IRCom&p
PFCOR	QUANT	5.00000E+001	PF Corr. (ohm)
SAMPLINGMODE	SELECTOR	1	Sampling &Mode
EOC	QUANT	0	Open Circuit (V)
PSTATMODEL	IQUANT	5	Pstat Model
PSTATSECTION	LABEL	REF3000-21108	Pstat Section
PSTATSERIALNO	LABEL	21108	Pstat Serial Number
CTRLMODE	IQUANT	1	Control Mode
ELECTROMETER	IQUANT	0	RE=0 or CS=1
IESTAB	IQUANT	2	I/E Stability
CASPEED	IQUANT	4	Control Amp Speed
CONVENTION	IQUANT	1	Current Convention
ICHRANGE	IQUANT	2	Ich Range
ICHRANGEMODE	TOGGLE	F	Ich Auto Range
ICHOFFSETENABLE	TOGGLE	F	Ich Offset Enable
ICHOFFSET	QUANT	0	Ich Offset (V)
ICHFILTER	IQUANT	1	Ich Filter
VCHRANGE	IQUANT	2	Vch Range
VCHRANGEMODE	TOGGLE	F	Vch Auto Range
VCHOFFSETENABLE	TOGGLE	F	Vch Offset Enable
VCHOFFSET	QUANT	0	Vch Offset (V)
VCHFILTER	IQUANT	1	Vch Filter
ACHRANGE	IQUANT	2	Ach Range
ACHOFFSETENABLE	TOGGLE	F	Ach Offset Enable
ACHOFFSET	QUANT	0	Ach Offset (V)
ACHFILTER	IQUANT	0	Ach Filter
IERANGELOWERLIMIT	IQUANT	2	I/E Range Lower Limit
IERANGEMODE	TOGGLE	F	I/E AutoRange
IERANGE	IQUANT	10	I/E Range
POSFEEDENABLE	TOGGLE	F	Positive Feedback IR Comp
POSFEEDRESISTANCE	QUANT	0	Positive Feedback Resistance (ohm)
ACHSELECT	IQUANT	0	Ach Select
SENSECABLEID	IQUANT	14	Sense Cable ID
PWRCABLEID	IQUANT	7	Power Cable ID
DCCALDATE	LABEL	11/9/2022	DC Calibration Date
ACCALDATE	LABEL	11/9/2022	AC Calibration Date
THERMOSELECT	IQUANT	1	Thermo Select
FRAMEWORKVERSION	LABEL	7.8.2	Framework Version
INSTRUMENTVERSION	LABEL	4.40	Instrument Version
COMPLIANCEVOLTAGE	IQUANT	0	Compliance Voltage
CURVE1	TABLE
	Pt	T	Vf	Im	Vu	Sig	Ach	IERange	Over	Temp
	#	s	V vs. Ref.	A	V	V	V	#	bits	deg C
	0	0.001667	4.98746E-001	9.15352E-005	0.00000E+000	5.00000E-001	-8.49272E-004	10	..........a	-327.74
	32	0.055	4.66746E-001	5.36371E-005	0.00000E+000	4.68000E-001	-8.59272E-004	10	..........a	-327.74
	64	0.108333	4.34781E-001	4.02024E-005	0.00000E+000	4.36000E-001	-8.29272E-004	10	..........a	-327.74
	96	0.161667	4.02781E-001	3.26829E-005	0.00000E+000	4.04000E-001	-8.79272E-004	10	..........a	-327.74
	128	0.215	3.70786E-001	2.56146E-005	0.00000E+000	3.72000E-001	-8.79272E-004	10	..........a	-327.74
	160	0.268333	3.38776E-001	2.31583E-005	0.00000E+000	3.40000E-001	-8.19272E-004	10	..........a	-327.74
	192	0.321667	3.06846E-001	2.07521E-005	0.00000E+000	3.08000E-001	-8.59272E-004	10	..........a	-327.74
	224	0.375	2.74791E-001	1.71928E-005	0.00000E+000	2.76000E-001	-8.19272E-004	10	..........a	-327.74
	256	0.428333	2.42856E-001	1.45861E-005	0.00000E+000	2.44000E-001	-8.09272E-004	10	..........a	-327.74
	288	0.481667	2.10876E-001	1.29820E-005	0.00000E+000	2.12000E-001	-8.99272E-004	10	..........a	-327.74
	320	0.535	1.78861E-001	9.82378E-006	0.00000E+000	1.80000E-001	-8.79272E-004	10	..........a	-327.74
	352	0.588333	1.46906E-001	7.36743E-006	0.00000E+000	1.48000E-001	-8.39272E-004	10	..........a	-327.74
	384	0.641667	1.14901E-001	4.86094E-006	0.00000E+000	1.16000E-001	-8.49272E-004	10	..........a	-327.74
	416	0.695	8.28710E-002	2.75550E-006	0.00000E+000	8.40000E-002	-8.39272E-004	10	..........a	-327.74
	448	0.748333	5.09310E-002	3.45731E-006	0.00000E+000	5.20000E-002	-7.99272E-004	10	..........a	-327.74
	480	0.801667	1.89360E-002	1.95342E-006	0.00000E+000	2.00000E-002	-8.99272E-004	10	..........a	-327.74
	512	0.855	-1.30540E-002	8.00437E-007	0.00000E+000	-1.20000E-002	-8.29272E-004	10	..........a	-327.74
	544	0.908333	-4.50640E-002	8.00437E-007	0.00000E+000	-4.40000E-002	-8.69272E-004	10	..........a	-327.74
	576	0.96167	-7.70740E-002	1.48751E-007	0.00000E+000	-7.60000E-002	-7.99272E-004	10	..........a	-327.74
	608	1.015	-1.09034E-001	8.00437E-007	0.00000E+000	-1.08000E-001	-8.69272E-004	10	..........a	-327.74
	640	1.06833	-1.41054E-001	-1.05436E-006	0.00000E+000	-1.40000E-001	-7.99272E-004	10	..........a	-327.74
	672	1.12167	-1.73069E-001	-2.40786E-006	0.00000E+000	-1.72000E-001	-8.09272E-004	10	..........a	-327.74
	704	1.175	-2.04954E-001	-3.51072E-006	0.00000E+000	-2.04000E-001	-8.19272E-004	10	..........a	-327.74
	736	1.22833	-2.36939E-001	-5.81668E-006	0.00000E+000	-2.36000E-001	-8.29272E-004	10	..........a	-327.74
	768	1.28167	-2.68974E-001	-8.62395E-006	0.00000E+000	-2.68000E-001	-7.89272E-004	10	..........a	-327.74
	800	1.335	-3.01019E-001	-1.01780E-005	0.00000E+000	-3.00000E-001	-7.79272E-004	10	..........a	-327.74
	832	1.38833	-3.32949E-001	-1.25341E-005	0.00000E+000	-3.32000E-001	-8.49272E-004	10	..........a	-327.74
	864	1.44167	-3.64889E-001	-1.55418E-005	0.00000E+000	-3.64000E-001	-8.49272E-004	10	..........a	-327.74
	896	1.495	-3.96929E-001	-2.54675E-005	0.00000E+000	-3.96000E-001	-7.99272E-004	10	..........a	-327.74
	928	1.54833	-4.28954E-001	-5.14848E-005	0.00000E+000	-4.28000E-001	-8.29272E-004	10	..........a	-327.74
	960	1.60167	-4.60924E-001	-9.05359E-005	0.00000E+000	-4.60000E-001	-8.49272E-004	10	..........a	-327.74
	992	1.655	-4.92894E-001	-1.31141E-004	0.00000E+000	-4.92000E-001	-8.09272E-004	10	..........a	-327.74
	1024	1.70833	-5.24894E-001	-1.96360E-004	0.00000E+000	-5.24000E-001	-7.79272E-004	10	..........a	-327.74
	1056	1.76167	-5.56854E-001	-3.03136E-004	0.00000E+000	-5.56000E-001	-8.19272E-004	10	..........a	-327.74
	1088	1.815	-5.88864E-001	-3.70911E-004	0.00000E+000	-5.88000E-001	-8.09272E-004	10	..........a	-327.74
	1120	1.86833	-6.20804E-001	-3.57978E-004	0.00000E+000	-6.20000E-001	-8.59272E-004	10	..........a	-327.74
	1152	1.92167	-6.52829E-001	-3.16320E-004	0.00000E+000	-6.52000E-001	-7.79272E-004	10	..........a	-327.74
	1184	1.975	-6.84829E-001	-2.78572E-004	0.00000E+000	-6.84000E-001	-8.39272E-004	10	..........a	-327.74
	1216	2.02833	-7.16794E-001	-2.52956E-004	0.00000E+000	-7.16000E-001	-7.89272E-004	10	..........a	-327.74
	1248	2.08167	-7.48794E-001	-2.32854E-004	0.00000E+000	-7.48000E-001	-8.49272E-004	10	..........a	-327.74
	1280	2.135	-7.80794E-001	-2.16712E-004	0.00000E+000	-7.80000E-001	-8.29272E-004	10	..........a	-327.74
	1312	2.18833	-8.12769E-001	-2.04731E-004	0.00000E+000	-8.12000E-001	-8.59272E-004	10	..........a	-327.74
	1344	2.24167	-8.44709E-001	-1.93953E-004	0.00000E+000	-8.44000E-001	-8.39272E-004	10	..........a	-327.74
	1376	2.295	-8.76749E-001	-1.83526E-004	0.00000E+000	-8.76000E-001	-7.89272E-004	10	..........a	-327.74
	1408	2.34833	-9.08714E-001	-1.77010E-004	0.00000E+000	-9.08000E-001	-8.19272E-004	10	..........a	-327.74
	1440	2.40167	-9.40734E-001	-1.70894E-004	0.00000E+000	-9.40000E-001	-8.29272E-004	10	..........a	-327.74
	1472	2.455	-9.72699E-001	-1.65630E-004	0.00000E+000	-9.72000E-001	-8.09272E-004	10	..........a	-327.74
	1504	2.50833	-9.96689E-001	-1.54501E-004	0.00000E+000	-9.96000E-001	-7.59272E-004	10	..........a	-327.74
	1536	2.56167	-9.64694E-001	-1.40014E-004	0.00000E+000	-9.64000E-001	-8.79272E-004	10	..........a	-327.74
	1568	2.615	-9.32729E-001	-1.30539E-004	0.00000E+000	-9.32000E-001	-7.49272E-004	10	..........a	-327.74
	1600	2.66833	-9.00729E-001	-1.24474E-004	0.00000E+000	-9.00000E-001	-8.69272E-004	10	..........a	-327.74
	1632	2.72167	-8.68739E-001	-1.19461E-004	0.00000E+000	-8.68000E-001	-8.39272E-004	10	..........a	-327.74
	1664	2.775	-8.36704E-001	-1.14548E-004	0.00000E+000	-8.36000E-001	-8.19272E-004	10	..........a	-327.74
	1696	2.82833	-8.04824E-001	-1.10237E-004	0.00000E+000	-8.04000E-001	-8.29272E-004	10	..........a	-327.74
	1728	2.88167	-7.72779E-001	-1.07580E-004	0.00000E+000	-7.72000E-001	-8.19272E-004	10	..........a	-327.74
	1760	2.935	-7.40799E-001	-1.01865E-004	0.00000E+000	-7.40000E-001	-8.39272E-004	10	..........a	-327.74
	1792	2.98833	-7.08779E-001	-9.70527E-005	0.00000E+000	-7.08000E-001	-7.89272E-004	10	..........a	-327.74
	1824	3.04167	-6.76869E-001	-9.17390E-005	0.00000E+000	-6.76000E-001	-8.19272E-004	10	..........a	-327.74
	1856	3.095	-6.44839E-001	-8.22645E-005	0.00000E+000	-6.44000E-001	-8.39272E-004	10	..........a	-327.74
	1888	3.14833	-6.12894E-001	-6.27640E-005	0.00000E+000	-6.12000E-001	-7.99272E-004	10	..........a	-327.74
	1920	3.20167	-5.80859E-001	-2.85756E-005	0.00000E+000	-5.80000E-001	-8.09272E-004	10	..........a	-327.74
	1952	3.255	-5.48899E-001	3.12793E-005	0.00000E+000	-5.48000E-001	-8.49272E-004	10	..........a	-327.74
	1984	3.30833	-5.16864E-001	9.59967E-005	0.00000E+000	-5.16000E-001	-8.19272E-004	10	..........a	-327.74
	2016	3.36167	-4.84904E-001	1.51139E-004	0.00000E+000	-4.84000E-001	-9.29272E-004	10	..........a	-327.74
	2048	3.415	-4.52949E-001	1.83323E-004	0.00000E+000	-4.52000E-001	-8.19272E-004	10	..........a	-327.74
	2080	3.46833	-4.20979E-001	1.84125E-004	0.00000E+000	-4.20000E-001	-7.99272E-004	10	..........a	-327.74
	2112	3.52167	-3.88899E-001	1.68835E-004	0.00000E+000	-3.88000E-001	-8.59272E-004	10	..........a	-327.74
	2144	3.575	-3.56984E-001	1.51992E-004	0.00000E+000	-3.56000E-001	-8.29272E-004	10	..........a	-327.74
	2176	3.62833	-3.24914E-001	1.41966E-004	0.00000E+000	-3.24000E-001	-8.79272E-004	10	..........a	-327.74
	2208	3.68167	-2.93019E-001	1.32842E-004	0.00000E+000	-2.92000E-001	-8.49272E-004	10	..........a	-327.74
	2240	3.735	-2.60984E-001	1.26225E-004	0.00000E+000	-2.60000E-001	-8.69272E-004	10	..........a	-327.74
	2272	3.78833	-2.28989E-001	1.19006E-004	0.00000E+000	-2.28000E-001	-7.89272E-004	10	..........a	-327.74
	2304	3.84167	-1.97004E-001	1.10685E-004	0.00000E+000	-1.96000E-001	-8.89272E-004	10	..........a	-327.74
	2336	3.895	-1.65054E-001	1.02514E-004	0.00000E+000	-1.64000E-001	-8.09272E-004	10	..........a	-327.74
	2368	3.94833	-1.33029E-001	9.64980E-005	0.00000E+000	-1.32000E-001	-8.79272E-004	10	..........a	-327.74
	2400	4.00167	-1.01064E-001	9.10339E-005	0.00000E+000	-1.00000E-001	-8.39272E-004	10	..........a	-327.74
	2432	4.055	-6.90640E-002	8.51186E-005	0.00000E+000	-6.80000E-002	-8.29272E-004	10	..........a	-327.74
	2464	4.10833	-3.70440E-002	8.09578E-005	0.00000E+000	-3.60000E-002	-8.49272E-004	10	..........a	-327.74
	2496	4.16167	-5.07900E-003	7.80503E-005	0.00000E+000	-4.00001E-003	-8.49272E-004	10	..........a	-327.74
	2528	4.215	2.69460E-002	7.51428E-005	0.00000E+000	2.80000E-002	-8.29272E-004	10	..........a	-327.74
	2560	4.26833	5.89110E-002	7.37893E-005	0.00000E+000	6.00000E-002	-8.39272E-004	10	..........a	-327.74
	2592	4.32167	9.09310E-002	7.22353E-005	0.00000E+000	9.20000E-002	-8.29272E-004	10	..........a	-327.74
	2624	4.375	1.22916E-001	7.22353E-005	0.00000E+000	1.24000E-001	-8.49272E-004	10	..........a	-327.74
	2656	4.42833	1.54866E-001	7.34384E-005	0.00000E+000	1.56000E-001	-8.29272E-004	10	..........a	-327.74
	2688	4.48167	1.86876E-001	7.59449E-005	0.00000E+000	1.88000E-001	-8.49272E-004	10	..........a	-327.74
	2720	4.535	2.18856E-001	7.59950E-005	0.00000E+000	2.20000E-001	-7.99272E-004	10	..........a	-327.74
	2752	4.58833	2.50876E-001	7.32379E-005	0.00000E+000	2.52000E-001	-8.29272E-004	10	..........a	-327.74
	2784	4.64167	2.82796E-001	7.02301E-005	0.00000E+000	2.84000E-001	-8.49272E-004	10	..........a	-327.74
	2816	4.695	3.14811E-001	6.77236E-005	0.00000E+000	3.16000E-001	-8.39272E-004	10	..........a	-327.74
	2848	4.74833	3.46831E-001	6.38636E-005	0.00000E+000	3.48000E-001	-8.49272E-004	10	..........a	-327.74
	2880	4.80167	3.78806E-001	6.21091E-005	0.00000E+000	3.80000E-001	-8.79272E-004	10	..........a	-327.74
	2912	4.855	4.10796E-001	5.97028E-005	0.00000E+000	4.12000E-001	-8.99272E-004	10	..........a	-327.74
	2944	4.90833	4.42756E-001	5.67452E-005	0.00000E+000	4.44000E-001	-8.49272E-004	10	..........a	-327.74
	2976	4.96167	4.74786E-001	5.47400E-005	0.00000E+000	4.76000E-001	-8.29272E-004	10	..........a	-327.74
	3000	5.00167	4.98766E-001	5.40883E-005	0.00000E+000	5.00000E-001	-8.29272E-004	10	..........a	-327.74
CURVE2	TABLE
	Pt	T	Vf	Im	Vu	Sig	Ach	IERange	Over	Temp
	#	s	V vs. Ref.	A	V	V	V	#	bits	deg C
	3001	5.00333	4.98771E-001	5.38878E-005	0.00000E+000	5.00000E-001	-8.49272E-004	10	..........a	-327.74