File: data/02-SI/Figures_S9_S11_RDE/15btmapaq-rde/1mkcl-15btmapaq-nitrogen-300mvpers.DTA
EXPLAIN
TAG	CV
TITLE	LABEL	Cyclic Voltammetry	Test &Identifier
DATE	LABEL	1/31/2023	Date
TIME	LABEL	18:18:14	Time
NOTES	NOTES	1	&Notes...

PSTAT	PSTAT	REF3000-21108	Potentiostat
VINIT	POTEN	5.00000E-001	F	Initial &E (V)
VLIMIT1	POTEN	-1.00000E+000	F	Scan Limit &1 (V)
VLIMIT2	POTEN	5.00000E-001	F	Scan Limit &2 (V)
VFINAL	POTEN	5.00000E-001	F	Final &E (V)
SCANRATE	QUANT	2.99999E+002	&Scan Rate (mV/s)
STEPSIZE	QUANT	1.00000E+000	St&ep Size (mV)
CYCLES	IQUANT	1	C&ycles (#)
IMODE	SELECTOR	1	I/E Range &Mode
IRANGE	QUANT	1.00000E+001	&Max Current (mA)
AREA	QUANT	1.00000E+000	Electrode &Area (cm^2)
ELECTRODETYPE	SELECTOR	0	Electrode Type
STRIPPING	TOGGLE	F	Used for Stripping
POLARITY	TOGGLE	F	Signal Polarity
CONDIT	TWOPARAM	F	1.50000E+001	0.00000E+000	Conditionin&g	Time(s)	E(V)
DELAY	TWOPARAM	F	5.00000E+000	0.00000E+000	Init. De&lay	Time(s)	Stab.(mV/s)
EQDELAY	QUANT	0.00000E+000	Equil. &Time (s)
IRCOMP	SELECTOR	0	IRCom&p
PFCOR	QUANT	5.00000E+001	PF Corr. (ohm)
SAMPLINGMODE	SELECTOR	1	Sampling &Mode
EOC	QUANT	0	Open Circuit (V)
PSTATMODEL	IQUANT	5	Pstat Model
PSTATSECTION	LABEL	REF3000-21108	Pstat Section
PSTATSERIALNO	LABEL	21108	Pstat Serial Number
CTRLMODE	IQUANT	1	Control Mode
ELECTROMETER	IQUANT	0	RE=0 or CS=1
IESTAB	IQUANT	2	I/E Stability
CASPEED	IQUANT	4	Control Amp Speed
CONVENTION	IQUANT	1	Current Convention
ICHRANGE	IQUANT	2	Ich Range
ICHRANGEMODE	TOGGLE	F	Ich Auto Range
ICHOFFSETENABLE	TOGGLE	F	Ich Offset Enable
ICHOFFSET	QUANT	0	Ich Offset (V)
ICHFILTER	IQUANT	2	Ich Filter
VCHRANGE	IQUANT	2	Vch Range
VCHRANGEMODE	TOGGLE	F	Vch Auto Range
VCHOFFSETENABLE	TOGGLE	F	Vch Offset Enable
VCHOFFSET	QUANT	0	Vch Offset (V)
VCHFILTER	IQUANT	2	Vch Filter
ACHRANGE	IQUANT	2	Ach Range
ACHOFFSETENABLE	TOGGLE	F	Ach Offset Enable
ACHOFFSET	QUANT	0	Ach Offset (V)
ACHFILTER	IQUANT	0	Ach Filter
IERANGELOWERLIMIT	IQUANT	2	I/E Range Lower Limit
IERANGEMODE	TOGGLE	F	I/E AutoRange
IERANGE	IQUANT	10	I/E Range
POSFEEDENABLE	TOGGLE	F	Positive Feedback IR Comp
POSFEEDRESISTANCE	QUANT	0	Positive Feedback Resistance (ohm)
ACHSELECT	IQUANT	0	Ach Select
SENSECABLEID	IQUANT	14	Sense Cable ID
PWRCABLEID	IQUANT	7	Power Cable ID
DCCALDATE	LABEL	11/9/2022	DC Calibration Date
ACCALDATE	LABEL	11/9/2022	AC Calibration Date
THERMOSELECT	IQUANT	1	Thermo Select
FRAMEWORKVERSION	LABEL	7.8.2	Framework Version
INSTRUMENTVERSION	LABEL	4.40	Instrument Version
COMPLIANCEVOLTAGE	IQUANT	0	Compliance Voltage
CURVE1	TABLE
	Pt	T	Vf	Im	Vu	Sig	Ach	IERange	Over	Temp
	#	s	V vs. Ref.	A	V	V	V	#	bits	deg C
	0	0.003333	4.98776E-001	8.76895E-005	0.00000E+000	5.00000E-001	-7.84272E-004	10	..........a	-327.74
	32	0.11	4.66731E-001	4.32245E-005	0.00000E+000	4.68000E-001	-9.74272E-004	10	..........a	-327.74
	64	0.216667	4.34794E-001	3.17949E-005	0.00000E+000	4.36000E-001	-9.34272E-004	10	..........a	-327.74
	96	0.323333	4.02821E-001	2.55788E-005	0.00000E+000	4.04000E-001	-8.39272E-004	10	..........a	-327.74
	128	0.43	3.70791E-001	2.18943E-005	0.00000E+000	3.72000E-001	-9.34272E-004	10	..........a	-327.74
	160	0.536667	3.38806E-001	1.88364E-005	0.00000E+000	3.40000E-001	-9.19272E-004	10	..........a	-327.74
	192	0.643333	3.06841E-001	1.68312E-005	0.00000E+000	3.08000E-001	-9.69272E-004	10	..........a	-327.74
	224	0.75	2.74851E-001	1.50516E-005	0.00000E+000	2.76000E-001	-1.02427E-003	10	..........a	-327.74
	256	0.856667	2.42829E-001	1.29211E-005	0.00000E+000	2.44000E-001	-1.01427E-003	10	..........a	-327.74
	288	0.96333	2.10859E-001	1.05148E-005	0.00000E+000	2.12000E-001	-9.39272E-004	10	..........a	-327.74
	320	1.07	1.78899E-001	8.88563E-006	0.00000E+000	1.80000E-001	-9.49272E-004	10	..........a	-327.74
	352	1.17667	1.46846E-001	7.20629E-006	0.00000E+000	1.48000E-001	-1.00927E-003	10	..........a	-327.74
	384	1.28333	1.14821E-001	5.60214E-006	0.00000E+000	1.16000E-001	-9.69272E-004	10	..........a	-327.74
	416	1.39	8.28561E-002	4.49928E-006	0.00000E+000	8.40000E-002	-1.02927E-003	10	..........a	-327.74
	448	1.49667	5.09111E-002	2.89513E-006	0.00000E+000	5.20000E-002	-9.89272E-004	10	..........a	-327.74
	480	1.60333	1.89461E-002	2.51916E-006	0.00000E+000	2.00000E-002	-9.19272E-004	10	..........a	-327.74
	512	1.71	-1.30564E-002	1.76721E-006	0.00000E+000	-1.20000E-002	-9.34272E-004	10	..........a	-327.74
	544	1.81667	-4.50464E-002	1.94267E-006	0.00000E+000	-4.40000E-002	-9.04272E-004	10	..........a	-327.74
	576	1.92333	-7.70489E-002	1.86747E-006	0.00000E+000	-7.60000E-002	-9.79272E-004	10	..........a	-327.74
	608	2.03	-1.08934E-001	1.31605E-006	0.00000E+000	-1.08000E-001	-8.49272E-004	10	..........a	-327.74
	640	2.13667	-1.40956E-001	1.06540E-006	0.00000E+000	-1.40000E-001	-7.89272E-004	10	..........a	-327.74
	672	2.24333	-1.73046E-001	8.14750E-007	0.00000E+000	-1.72000E-001	-9.09272E-004	10	..........a	-327.74
	704	2.35	-2.04959E-001	4.38777E-007	0.00000E+000	-2.04000E-001	-8.89272E-004	10	..........a	-327.74
	736	2.45667	-2.36944E-001	-6.39012E-007	0.00000E+000	-2.36000E-001	-8.84272E-004	10	..........a	-327.74
	768	2.56333	-2.69011E-001	-1.54135E-006	0.00000E+000	-2.68000E-001	-1.00927E-003	10	..........a	-327.74
	800	2.67	-3.00994E-001	-2.64420E-006	0.00000E+000	-3.00000E-001	-9.69272E-004	10	..........a	-327.74
	832	2.77667	-3.32954E-001	-4.77471E-006	0.00000E+000	-3.32000E-001	-9.24272E-004	10	..........a	-327.74
	864	2.88333	-3.64936E-001	-7.28120E-006	0.00000E+000	-3.64000E-001	-9.29272E-004	10	..........a	-327.74
	896	2.99	-3.96951E-001	-1.62544E-005	0.00000E+000	-3.96000E-001	-9.04272E-004	10	..........a	-327.74
	928	3.09667	-4.28931E-001	-3.67073E-005	0.00000E+000	-4.28000E-001	-7.89272E-004	10	..........a	-327.74
	960	3.20333	-4.60871E-001	-6.44291E-005	0.00000E+000	-4.60000E-001	-9.34272E-004	10	..........a	-327.74
	992	3.31	-4.92791E-001	-9.53089E-005	0.00000E+000	-4.92000E-001	-9.29272E-004	10	..........a	-327.74
	1024	3.41667	-5.24909E-001	-1.48246E-004	0.00000E+000	-5.24000E-001	-9.54272E-004	10	..........a	-327.74
	1056	3.52333	-5.56844E-001	-2.25270E-004	0.00000E+000	-5.56000E-001	-8.69272E-004	10	..........a	-327.74
	1088	3.63	-5.88864E-001	-2.64396E-004	0.00000E+000	-5.88000E-001	-1.03427E-003	10	..........a	-327.74
	1120	3.73667	-6.20849E-001	-2.47252E-004	0.00000E+000	-6.20000E-001	-1.02927E-003	10	..........a	-327.74
	1152	3.84333	-6.52789E-001	-2.15445E-004	0.00000E+000	-6.52000E-001	-9.19272E-004	10	..........a	-327.74
	1184	3.95	-6.84864E-001	-1.90129E-004	0.00000E+000	-6.84000E-001	-9.14272E-004	10	..........a	-327.74
	1216	4.05667	-7.16831E-001	-1.71656E-004	0.00000E+000	-7.16000E-001	-9.14272E-004	10	..........a	-327.74
	1248	4.16333	-7.48754E-001	-1.58147E-004	0.00000E+000	-7.48000E-001	-9.04272E-004	10	..........a	-327.74
	1280	4.27	-7.80786E-001	-1.47143E-004	0.00000E+000	-7.80000E-001	-9.74272E-004	10	..........a	-327.74
	1312	4.37667	-8.12801E-001	-1.37669E-004	0.00000E+000	-8.12000E-001	-9.84272E-004	10	..........a	-327.74
	1344	4.48333	-8.44701E-001	-1.31252E-004	0.00000E+000	-8.44000E-001	-8.94272E-004	10	..........a	-327.74
	1376	4.59	-8.76759E-001	-1.25111E-004	0.00000E+000	-8.76000E-001	-9.39272E-004	10	..........a	-327.74
	1408	4.69667	-9.08734E-001	-1.19547E-004	0.00000E+000	-9.08000E-001	-9.99272E-004	10	..........a	-327.74
	1440	4.80333	-9.40734E-001	-1.15010E-004	0.00000E+000	-9.40000E-001	-1.09927E-003	10	..........a	-327.74
	1472	4.91	-9.72689E-001	-1.11576E-004	0.00000E+000	-9.72000E-001	-9.14272E-004	10	..........a	-327.74
	1504	5.01667	-9.96706E-001	-1.04658E-004	0.00000E+000	-9.96000E-001	-1.03927E-003	10	..........a	-327.74
	1536	5.12333	-9.64684E-001	-9.55596E-005	0.00000E+000	-9.64000E-001	-9.49272E-004	10	..........a	-327.74
	1568	5.23	-9.32729E-001	-9.01456E-005	0.00000E+000	-9.32000E-001	-1.00427E-003	10	..........a	-327.74
	1600	5.33667	-9.00729E-001	-8.63608E-005	0.00000E+000	-9.00000E-001	-9.64272E-004	10	..........a	-327.74
	1632	5.44333	-8.68756E-001	-8.32277E-005	0.00000E+000	-8.68000E-001	-1.03427E-003	10	..........a	-327.74
	1664	5.55	-8.36704E-001	-8.00695E-005	0.00000E+000	-8.36000E-001	-8.94272E-004	10	..........a	-327.74
	1696	5.65667	-8.04911E-001	-7.71369E-005	0.00000E+000	-8.04000E-001	-1.01927E-003	10	..........a	-327.74
	1728	5.76333	-7.72811E-001	-7.39788E-005	0.00000E+000	-7.72000E-001	-1.04927E-003	10	..........a	-327.74
	1760	5.87	-7.40806E-001	-7.17480E-005	0.00000E+000	-7.40000E-001	-9.84272E-004	10	..........a	-327.74
	1792	5.97667	-7.08854E-001	-6.84394E-005	0.00000E+000	-7.08000E-001	-1.03427E-003	10	..........a	-327.74
	1824	6.08333	-6.76861E-001	-6.41533E-005	0.00000E+000	-6.76000E-001	-1.03927E-003	10	..........a	-327.74
	1856	6.19	-6.44941E-001	-5.86892E-005	0.00000E+000	-6.44000E-001	-1.03927E-003	10	..........a	-327.74
	1888	6.29667	-6.12869E-001	-4.74602E-005	0.00000E+000	-6.12000E-001	-9.84272E-004	10	..........a	-327.74
	1920	6.40333	-5.80916E-001	-2.18188E-005	0.00000E+000	-5.80000E-001	-1.04927E-003	10	..........a	-327.74
	1952	6.51	-5.48886E-001	2.42003E-005	0.00000E+000	-5.48000E-001	-9.79272E-004	10	..........a	-327.74
	1984	6.61667	-5.16946E-001	7.72375E-005	0.00000E+000	-5.16000E-001	-9.94272E-004	10	..........a	-327.74
	2016	6.72333	-4.84974E-001	1.19647E-004	0.00000E+000	-4.84000E-001	-1.01427E-003	10	..........a	-327.74
	2048	6.83	-4.53024E-001	1.40827E-004	0.00000E+000	-4.52000E-001	-1.09427E-003	10	..........a	-327.74
	2080	6.93667	-4.20896E-001	1.36792E-004	0.00000E+000	-4.20000E-001	-8.89272E-004	10	..........a	-327.74
	2112	7.04333	-3.88891E-001	1.22555E-004	0.00000E+000	-3.88000E-001	-8.94272E-004	10	..........a	-327.74
	2144	7.15	-3.57036E-001	1.10022E-004	0.00000E+000	-3.56000E-001	-1.01927E-003	10	..........a	-327.74
	2176	7.25667	-3.24991E-001	1.00623E-004	0.00000E+000	-3.24000E-001	-8.69272E-004	10	..........a	-327.74
	2208	7.36333	-2.93026E-001	9.37803E-005	0.00000E+000	-2.92000E-001	-9.39272E-004	10	..........a	-327.74
	2240	7.47	-2.60964E-001	8.77647E-005	0.00000E+000	-2.60000E-001	-8.34272E-004	10	..........a	-327.74
	2272	7.57667	-2.28996E-001	8.17241E-005	0.00000E+000	-2.28000E-001	-9.39272E-004	10	..........a	-327.74
	2304	7.68333	-1.97076E-001	7.56333E-005	0.00000E+000	-1.96000E-001	-8.64272E-004	10	..........a	-327.74
	2336	7.79	-1.65019E-001	7.09963E-005	0.00000E+000	-1.64000E-001	-9.09272E-004	10	..........a	-327.74
	2368	7.89667	-1.32996E-001	6.59332E-005	0.00000E+000	-1.32000E-001	-9.69272E-004	10	..........a	-327.74
	2400	8.00333	-1.01076E-001	6.14717E-005	0.00000E+000	-1.00000E-001	-8.94272E-004	10	..........a	-327.74
	2432	8.11	-6.90739E-002	5.80378E-005	0.00000E+000	-6.80000E-002	-9.14272E-004	10	..........a	-327.74
	2464	8.21667	-3.71089E-002	5.55564E-005	0.00000E+000	-3.60000E-002	-9.99272E-004	10	..........a	-327.74
	2496	8.32333	-5.11394E-003	5.30750E-005	0.00000E+000	-4.00001E-003	-9.14272E-004	10	..........a	-327.74
	2528	8.43	2.69261E-002	5.10447E-005	0.00000E+000	2.80000E-002	-8.49272E-004	10	..........a	-327.74
	2560	8.53667	5.88836E-002	4.99669E-005	0.00000E+000	6.00000E-002	-9.14272E-004	10	..........a	-327.74
	2592	8.64333	9.09311E-002	4.91899E-005	0.00000E+000	9.20000E-002	-8.94272E-004	10	..........a	-327.74
	2624	8.75	1.22949E-001	4.97163E-005	0.00000E+000	1.24000E-001	-9.39272E-004	10	..........a	-327.74
	2656	8.85667	1.54824E-001	5.20974E-005	0.00000E+000	1.56000E-001	-9.59272E-004	10	..........a	-327.74
	2688	8.96333	1.86874E-001	5.39522E-005	0.00000E+000	1.88000E-001	-8.69272E-004	10	..........a	-327.74
	2720	9.07	2.18776E-001	5.36765E-005	0.00000E+000	2.20000E-001	-8.44272E-004	10	..........a	-327.74
	2752	9.17667	2.50854E-001	5.15711E-005	0.00000E+000	2.52000E-001	-9.64272E-004	10	..........a	-327.74
	2784	9.28333	2.82831E-001	4.90896E-005	0.00000E+000	2.84000E-001	-9.34272E-004	10	..........a	-327.74
	2816	9.39	3.14836E-001	4.65832E-005	0.00000E+000	3.16000E-001	-9.04272E-004	10	..........a	-327.74
	2848	9.49667	3.46846E-001	4.45028E-005	0.00000E+000	3.48000E-001	-9.14272E-004	10	..........a	-327.74
	2880	9.6033	3.78804E-001	4.21968E-005	0.00000E+000	3.80000E-001	-9.34272E-004	10	..........a	-327.74
	2912	9.71	4.10806E-001	4.10689E-005	0.00000E+000	4.12000E-001	-9.19272E-004	10	..........a	-327.74
	2944	9.8167	4.42754E-001	3.95650E-005	0.00000E+000	4.44000E-001	-9.09272E-004	10	..........a	-327.74
	2976	9.9233	4.74754E-001	3.77854E-005	0.00000E+000	4.76000E-001	-9.29272E-004	10	..........a	-327.74
	3000	10.0033	4.98746E-001	3.69081E-005	0.00000E+000	5.00000E-001	-8.99272E-004	10	..........a	-327.74
CURVE2	TABLE
	Pt	T	Vf	Im	Vu	Sig	Ach	IERange	Over	Temp
	#	s	V vs. Ref.	A	V	V	V	#	bits	deg C
	3001	10.0067	4.98756E-001	3.58554E-005	0.00000E+000	5.00000E-001	-9.14272E-004	10	..........a	-327.74