File: data/02-SI/Figures_S9_S11_RDE/15btmapaq-rde/1mkcl-5mmolar15btmapaq-nitrogen-rde2500mvpers-50mvpers.DTA
EXPLAIN
TAG	LSV
TITLE	LABEL	Linear Sweep Voltammetry	Test &Identifier
DATE	LABEL	1/31/2023	Date
TIME	LABEL	18:29:19	Time
NOTES	NOTES	1	&Notes...

PSTAT	PSTAT	REF3000-21108	Potentiostat
VINIT	POTEN	5.00000E-001	F	&Initial E (V)
VFINAL	POTEN	-1.00000E+000	F	&Final E (V)
SCANRATE	QUANT	4.99999E+001	&Scan Rate (mV/s)
STEPSIZE	QUANT	1.00000E-001	St&ep Size (mV)
IMODE	SELECTOR	0	I/E Range &Mode
IRANGE	QUANT	1.00000E+002	&Max Current (mA)
AREA	QUANT	1.00000E+000	Electrode &Area (cm^2)
ELECTRODETYPE	SELECTOR	0	Electrode Type
STRIPPING	TOGGLE	F	Used for Stripping
POLARITY	TOGGLE	F	Signal Polarity
CONDIT	TWOPARAM	F	1.50000E+001	0.00000E+000	Conditionin&g	Time(s)	E(V)
DELAY	TWOPARAM	F	3.00000E+001	0.00000E+000	Init. De&lay	Time(s)	Stab.(mV/s)
EQDELAY	QUANT	0.00000E+000	Equil. &Time (s)
IRCOMP	SELECTOR	0	IRCom&p
PFCOR	QUANT	5.00000E+001	PF Corr. (ohm)
SAMPLINGMODE	SELECTOR	1	Sampling &Mode
EOC	QUANT	0	Open Circuit (V)
PSTATMODEL	IQUANT	5	Pstat Model
PSTATSECTION	LABEL	REF3000-21108	Pstat Section
PSTATSERIALNO	LABEL	21108	Pstat Serial Number
CTRLMODE	IQUANT	1	Control Mode
ELECTROMETER	IQUANT	0	RE=0 or CS=1
IESTAB	IQUANT	2	I/E Stability
CASPEED	IQUANT	4	Control Amp Speed
CONVENTION	IQUANT	1	Current Convention
ICHRANGE	IQUANT	2	Ich Range
ICHRANGEMODE	TOGGLE	F	Ich Auto Range
ICHOFFSETENABLE	TOGGLE	F	Ich Offset Enable
ICHOFFSET	QUANT	0	Ich Offset (V)
ICHFILTER	IQUANT	2	Ich Filter
VCHRANGE	IQUANT	2	Vch Range
VCHRANGEMODE	TOGGLE	T	Vch Auto Range
VCHOFFSETENABLE	TOGGLE	F	Vch Offset Enable
VCHOFFSET	QUANT	0	Vch Offset (V)
VCHFILTER	IQUANT	2	Vch Filter
ACHRANGE	IQUANT	2	Ach Range
ACHOFFSETENABLE	TOGGLE	F	Ach Offset Enable
ACHOFFSET	QUANT	0	Ach Offset (V)
ACHFILTER	IQUANT	0	Ach Filter
IERANGELOWERLIMIT	IQUANT	2	I/E Range Lower Limit
IERANGEMODE	TOGGLE	T	I/E AutoRange
IERANGE	IQUANT	11	I/E Range
POSFEEDENABLE	TOGGLE	F	Positive Feedback IR Comp
POSFEEDRESISTANCE	QUANT	0	Positive Feedback Resistance (ohm)
ACHSELECT	IQUANT	0	Ach Select
SENSECABLEID	IQUANT	14	Sense Cable ID
PWRCABLEID	IQUANT	7	Power Cable ID
DCCALDATE	LABEL	11/9/2022	DC Calibration Date
ACCALDATE	LABEL	11/9/2022	AC Calibration Date
THERMOSELECT	IQUANT	1	Thermo Select
FRAMEWORKVERSION	LABEL	7.8.2	Framework Version
INSTRUMENTVERSION	LABEL	4.40	Instrument Version
COMPLIANCEVOLTAGE	IQUANT	0	Compliance Voltage
CURVE	TABLE	15001
	Pt	T	Vf	Im	Vu	Sig	Ach	IERange	Over	Cycle	Temp
	#	s	V vs. Ref.	A	V	V	V	#	bits	#	deg C
	0	0.002	5.00329E-001	-7.38497E-005	0.00000E+000	5.00000E-001	6.20728E-004	11	..........a	0	-327.74
	156	0.314	4.83777E-001	2.87298E-006	0.00000E+000	4.84400E-001	5.29061E-004	8	..........a	0	-327.74
	312	0.626	4.68127E-001	1.64891E-006	0.00000E+000	4.68800E-001	4.62394E-004	8	..........a	0	-327.74
	468	0.938	4.52522E-001	1.19603E-006	0.00000E+000	4.53200E-001	5.04061E-004	8	..........a	0	-327.74
	624	1.25	4.36889E-001	7.57732E-007	0.00000E+000	4.37600E-001	4.95728E-004	8	..........a	0	-327.74
	780	1.562	4.21335E-001	6.86072E-007	0.00000E+000	4.22000E-001	5.45728E-004	8	..........a	0	-327.74
	936	1.874	4.05756E-001	4.31925E-007	0.00000E+000	4.06400E-001	5.54061E-004	8	..........a	0	-327.74
	1092	2.186	3.90139E-001	3.60681E-007	0.00000E+000	3.90800E-001	5.95728E-004	8	..........a	0	-327.74
	1248	2.498	3.74489E-001	2.71938E-007	0.00000E+000	3.75200E-001	5.62394E-004	8	..........a	0	-327.74
	1404	2.81	3.58972E-001	2.22359E-007	0.00000E+000	3.59600E-001	5.37394E-004	8	..........a	0	-327.74
	1560	3.122	3.43410E-001	2.79854E-007	0.00000E+000	3.44000E-001	5.20728E-004	8	..........a	0	-327.74
	1716	3.434	3.27777E-001	1.06118E-007	0.00000E+000	3.28400E-001	4.29061E-004	8	..........a	0	-327.74
	1872	3.746	3.12197E-001	6.86211E-008	0.00000E+000	3.12800E-001	4.45728E-004	8	..........a	0	-327.74
	2028	4.058	2.96535E-001	1.56531E-007	0.00000E+000	2.97200E-001	4.95728E-004	8	..........a	0	-327.74
	2184	4.37	2.80972E-001	7.19541E-008	0.00000E+000	2.81600E-001	4.79061E-004	8	..........a	0	-327.74
	2340	4.682	2.65293E-001	-1.97052E-008	0.00000E+000	2.66000E-001	4.70728E-004	8	..........a	0	-327.74
	2496	4.994	2.49797E-001	-6.76180E-008	0.00000E+000	2.50400E-001	5.95728E-004	8	..........a	0	-327.74
	2652	5.306	2.33633E-001	-7.01178E-008	0.00000E+000	2.34800E-001	4.70728E-004	8	..........a	0	-327.74
	2808	5.618	2.18053E-001	-4.55364E-008	0.00000E+000	2.19200E-001	4.79061E-004	8	..........a	0	-327.74
	2964	5.93	2.02442E-001	-7.84504E-008	0.00000E+000	2.03600E-001	4.70728E-004	8	..........a	0	-327.74
	3120	6.242	1.86854E-001	-1.75943E-007	0.00000E+000	1.88000E-001	4.79061E-004	8	..........a	0	-327.74
	3276	6.554	1.71263E-001	-1.91358E-007	0.00000E+000	1.72400E-001	5.54061E-004	8	..........a	0	-327.74
	3432	6.866	1.55669E-001	-2.38854E-007	0.00000E+000	1.56800E-001	4.95728E-004	8	..........a	0	-327.74
	3588	7.178	1.40078E-001	-1.54278E-007	0.00000E+000	1.41200E-001	5.37394E-004	8	..........a	0	-327.74
	3744	7.49	1.24489E-001	-2.09273E-007	0.00000E+000	1.25600E-001	5.29061E-004	8	..........a	0	-327.74
	3900	7.802	1.08887E-001	-2.24689E-007	0.00000E+000	1.10000E-001	4.79061E-004	8	..........a	0	-327.74
	4056	8.114	9.32981E-002	-2.95516E-007	0.00000E+000	9.44000E-002	6.12394E-004	8	..........a	0	-327.74
	4212	8.426	7.77168E-002	-2.39271E-007	0.00000E+000	7.88000E-002	5.45728E-004	8	..........a	0	-327.74
	4368	8.738	6.21331E-002	-3.03016E-007	0.00000E+000	6.32000E-002	5.87394E-004	8	..........a	0	-327.74
	4524	9.05	4.65364E-002	-2.54686E-007	0.00000E+000	4.76000E-002	5.37394E-004	8	..........a	0	-327.74
	4680	9.362	3.09422E-002	-3.08849E-007	0.00000E+000	3.20000E-002	5.29061E-004	8	..........a	0	-327.74
	4836	9.674	1.52908E-002	-2.17606E-007	0.00000E+000	1.64000E-002	5.70728E-004	8	..........a	0	-327.74
	4992	9.986	-2.85193E-004	-2.38854E-007	0.00000E+000	7.99984E-004	5.29061E-004	8	..........a	0	-327.74
	5148	10.298	-1.58862E-002	-4.34672E-007	0.00000E+000	-1.48000E-002	6.12394E-004	8	..........a	0	-327.74
	5304	10.61	-3.14299E-002	-5.24665E-007	0.00000E+000	-3.04000E-002	4.87394E-004	8	..........a	0	-327.74
	5460	10.922	-4.70286E-002	-4.15507E-007	0.00000E+000	-4.60000E-002	5.70728E-004	8	..........a	0	-327.74
	5616	11.234	-6.26224E-002	-5.23415E-007	0.00000E+000	-6.16000E-002	6.29061E-004	8	..........a	0	-327.74
	5772	11.546	-7.82203E-002	-7.65062E-007	0.00000E+000	-7.72000E-002	5.95728E-004	8	..........a	0	-327.74
	5928	11.858	-9.37907E-002	-6.96317E-007	0.00000E+000	-9.28000E-002	6.54061E-004	8	..........a	0	-327.74
	6084	12.17	-1.09388E-001	-8.50055E-007	0.00000E+000	-1.08400E-001	4.70728E-004	8	..........a	0	-327.74
	6240	12.482	-1.24992E-001	-1.03087E-006	0.00000E+000	-1.24000E-001	5.54061E-004	8	..........a	0	-327.74
	6396	12.794	-1.40584E-001	-1.56375E-006	0.00000E+000	-1.39600E-001	5.54061E-004	8	..........a	0	-327.74
	6552	13.106	-1.56170E-001	-1.87581E-006	0.00000E+000	-1.55200E-001	5.29061E-004	8	..........a	0	-327.74
	6708	13.418	-1.71764E-001	-2.67241E-006	0.00000E+000	-1.70800E-001	4.62394E-004	8	..........a	0	-327.74
	6864	13.73	-1.87351E-001	-3.66900E-006	0.00000E+000	-1.86400E-001	5.62394E-004	8	..........a	0	-327.74
	7020	14.042	-2.02939E-001	-5.24845E-006	0.00000E+000	-2.02000E-001	5.95728E-004	8	..........a	0	-327.74
	7176	14.354	-2.18531E-001	-7.20580E-006	0.00000E+000	-2.17600E-001	5.62394E-004	8	..........a	0	-327.74
	7332	14.666	-2.34112E-001	-9.73559E-006	0.00000E+000	-2.33200E-001	5.87394E-004	8	..........a	0	-327.74
	7488	14.978	-2.49714E-001	-1.29266E-005	0.00000E+000	-2.48800E-001	6.29061E-004	8	..........a	0	-327.74
	7644	15.29	-2.65301E-001	-1.61159E-005	0.00000E+000	-2.64400E-001	5.45728E-004	8	..........a	0	-327.74
	7800	15.602	-2.80373E-001	-1.95294E-005	0.00000E+000	-2.80000E-001	5.29061E-004	8	..........a	0	-327.74
	7956	15.914	-2.95932E-001	-2.30654E-005	0.00000E+000	-2.95600E-001	5.54061E-004	8	..........a	0	-327.74
	8112	16.226	-3.11557E-001	-2.65026E-005	0.00000E+000	-3.11200E-001	4.70728E-004	8	..........a	0	-327.74
	8268	16.538	-3.27140E-001	-2.96548E-005	0.00000E+000	-3.26800E-001	5.12394E-004	8	..........a	0	-327.74
	8424	16.85	-3.42736E-001	-3.28812E-005	0.00000E+000	-3.42400E-001	4.87394E-004	8	..........a	0	-327.74
	8580	17.162	-3.58323E-001	-3.61251E-005	0.00000E+000	-3.58000E-001	5.29061E-004	8	..........a	0	-327.74
	8736	17.474	-3.73865E-001	-3.97782E-005	0.00000E+000	-3.73600E-001	5.37394E-004	8	..........a	0	-327.74
	8892	17.786	-3.89457E-001	-4.45070E-005	0.00000E+000	-3.89200E-001	4.70728E-004	8	..........a	0	-327.74
	9048	18.098	-4.05103E-001	-5.16256E-005	0.00000E+000	-4.04800E-001	5.70728E-004	8	..........a	0	-327.74
	9204	18.41	-4.20769E-001	-6.21585E-005	0.00000E+000	-4.20400E-001	4.79061E-004	8	..........a	0	-327.74
	9360	18.722	-4.36278E-001	-7.57686E-005	0.00000E+000	-4.36000E-001	4.62394E-004	8	..........a	0	-327.74
	9516	19.034	-4.51778E-001	-9.19811E-005	0.00000E+000	-4.51600E-001	4.95728E-004	8	..........a	0	-327.74
	9672	19.346	-4.67419E-001	-1.10488E-004	0.00000E+000	-4.67200E-001	4.62394E-004	8	..........a	0	-327.74
	9828	19.658	-4.82998E-001	-1.30168E-004	0.00000E+000	-4.82800E-001	4.62394E-004	8	..........a	0	-327.74
	9984	19.97	-4.98523E-001	-1.53187E-004	0.00000E+000	-4.98400E-001	5.20728E-004	8	..........a	0	-327.74
	10140	20.282	-5.14115E-001	-1.84042E-004	0.00000E+000	-5.14000E-001	4.54061E-004	8	..........a	0	-327.74
	10296	20.594	-5.29636E-001	-2.26242E-004	0.00000E+000	-5.29600E-001	4.45728E-004	8	..........a	0	-327.74
	10452	20.906	-5.45471E-001	-2.80274E-004	0.00000E+000	-5.45200E-001	5.12394E-004	9	..........a	0	-327.74
	10608	21.218	-5.60987E-001	-3.36970E-004	0.00000E+000	-5.60800E-001	6.04061E-004	9	..........a	0	-327.74
	10764	21.53	-5.76562E-001	-3.89919E-004	0.00000E+000	-5.76400E-001	5.62394E-004	9	..........a	0	-327.74
	10920	21.842	-5.92183E-001	-4.33857E-004	0.00000E+000	-5.92000E-001	5.87394E-004	9	..........a	0	-327.74
	11076	22.154	-6.07787E-001	-4.67889E-004	0.00000E+000	-6.07600E-001	6.20728E-004	9	..........a	0	-327.74
	11232	22.466	-6.23254E-001	-4.90328E-004	0.00000E+000	-6.23200E-001	5.04061E-004	9	..........a	0	-327.74
	11388	22.778	-6.38937E-001	-5.05961E-004	0.00000E+000	-6.38800E-001	5.87394E-004	9	..........a	0	-327.74
	11544	23.09	-6.54479E-001	-5.19161E-004	0.00000E+000	-6.54400E-001	6.37394E-004	9	..........a	0	-327.74
	11700	23.402	-6.70100E-001	-5.24280E-004	0.00000E+000	-6.70000E-001	6.54061E-004	9	..........a	0	-327.74
	11856	23.714	-6.85654E-001	-5.31961E-004	0.00000E+000	-6.85600E-001	6.20728E-004	9	..........a	0	-327.74
	12012	24.026	-7.01304E-001	-5.33640E-004	0.00000E+000	-7.01200E-001	5.54061E-004	9	..........a	0	-327.74
	12168	24.338	-7.16875E-001	-5.36992E-004	0.00000E+000	-7.16800E-001	5.79061E-004	9	..........a	0	-327.74
	12324	24.65	-7.32500E-001	-5.41538E-004	0.00000E+000	-7.32400E-001	5.29061E-004	9	..........a	0	-327.74
	12480	24.962	-7.48096E-001	-5.42992E-004	0.00000E+000	-7.48000E-001	5.87394E-004	9	..........a	0	-327.74
	12636	25.274	-7.63650E-001	-5.44701E-004	0.00000E+000	-7.63600E-001	5.87394E-004	9	..........a	0	-327.74
	12792	25.586	-7.79333E-001	-5.47321E-004	0.00000E+000	-7.79200E-001	5.62394E-004	9	..........a	0	-327.74
	12948	25.898	-7.94883E-001	-5.48295E-004	0.00000E+000	-7.94800E-001	4.79061E-004	9	..........a	0	-327.74
	13104	26.21	-8.10442E-001	-5.48558E-004	0.00000E+000	-8.10400E-001	6.29061E-004	9	..........a	0	-327.74
	13260	26.522	-8.25983E-001	-5.50614E-004	0.00000E+000	-8.26000E-001	4.79061E-004	9	..........a	0	-327.74
	13416	26.834	-8.41625E-001	-5.47944E-004	0.00000E+000	-8.41600E-001	5.54061E-004	9	..........a	0	-327.74
	13572	27.146	-8.57217E-001	-5.53167E-004	0.00000E+000	-8.57200E-001	6.04061E-004	9	..........a	0	-327.74
	13728	27.458	-8.72750E-001	-5.52958E-004	0.00000E+000	-8.72800E-001	6.12394E-004	9	..........a	0	-327.74
	13884	27.77	-8.88437E-001	-5.53184E-004	0.00000E+000	-8.88400E-001	5.20728E-004	9	..........a	0	-327.74
	14040	28.082	-9.04042E-001	-5.52277E-004	0.00000E+000	-9.04000E-001	4.12394E-004	9	..........a	0	-327.74
	14196	28.394	-9.19650E-001	-5.53272E-004	0.00000E+000	-9.19600E-001	4.45728E-004	9	..........a	0	-327.74
	14352	28.706	-9.35154E-001	-5.55056E-004	0.00000E+000	-9.35200E-001	5.37394E-004	9	..........a	0	-327.74
	14508	29.018	-9.50746E-001	-5.56385E-004	0.00000E+000	-9.50800E-001	5.37394E-004	9	..........a	0	-327.74
	14664	29.33	-9.66383E-001	-5.57338E-004	0.00000E+000	-9.66400E-001	5.87394E-004	9	..........a	0	-327.74
	14820	29.642	-9.81975E-001	-5.58065E-004	0.00000E+000	-9.82000E-001	4.62394E-004	9	..........a	0	-327.74
	14976	29.954	-9.97604E-001	-5.58583E-004	0.00000E+000	-9.97600E-001	4.70728E-004	9	..........a	0	-327.74
	15000	30.002	-9.99983E-001	-5.58742E-004	0.00000E+000	-1.00000E+000	4.87394E-004	9	..........a	0	-327.74