File: data/02-SI/Figures_S9_S11_RDE/15btmapaq-rde/1mkcl-15btmapaq-nitrogen-7000mvpers.DTA
EXPLAIN
TAG	CV
TITLE	LABEL	Cyclic Voltammetry	Test &Identifier
DATE	LABEL	1/31/2023	Date
TIME	LABEL	18:22:04	Time
NOTES	NOTES	1	&Notes...

PSTAT	PSTAT	REF3000-21108	Potentiostat
VINIT	POTEN	5.00000E-001	F	Initial &E (V)
VLIMIT1	POTEN	-1.00000E+000	F	Scan Limit &1 (V)
VLIMIT2	POTEN	5.00000E-001	F	Scan Limit &2 (V)
VFINAL	POTEN	5.00000E-001	F	Final &E (V)
SCANRATE	QUANT	6.66665E+003	&Scan Rate (mV/s)
STEPSIZE	QUANT	1.00000E+000	St&ep Size (mV)
CYCLES	IQUANT	1	C&ycles (#)
IMODE	SELECTOR	1	I/E Range &Mode
IRANGE	QUANT	1.00000E+001	&Max Current (mA)
AREA	QUANT	1.00000E+000	Electrode &Area (cm^2)
ELECTRODETYPE	SELECTOR	0	Electrode Type
STRIPPING	TOGGLE	F	Used for Stripping
POLARITY	TOGGLE	F	Signal Polarity
CONDIT	TWOPARAM	F	1.50000E+001	0.00000E+000	Conditionin&g	Time(s)	E(V)
DELAY	TWOPARAM	F	5.00000E+000	0.00000E+000	Init. De&lay	Time(s)	Stab.(mV/s)
EQDELAY	QUANT	0.00000E+000	Equil. &Time (s)
IRCOMP	SELECTOR	0	IRCom&p
PFCOR	QUANT	5.00000E+001	PF Corr. (ohm)
SAMPLINGMODE	SELECTOR	1	Sampling &Mode
EOC	QUANT	0	Open Circuit (V)
PSTATMODEL	IQUANT	5	Pstat Model
PSTATSECTION	LABEL	REF3000-21108	Pstat Section
PSTATSERIALNO	LABEL	21108	Pstat Serial Number
CTRLMODE	IQUANT	1	Control Mode
ELECTROMETER	IQUANT	0	RE=0 or CS=1
IESTAB	IQUANT	2	I/E Stability
CASPEED	IQUANT	4	Control Amp Speed
CONVENTION	IQUANT	1	Current Convention
ICHRANGE	IQUANT	2	Ich Range
ICHRANGEMODE	TOGGLE	F	Ich Auto Range
ICHOFFSETENABLE	TOGGLE	F	Ich Offset Enable
ICHOFFSET	QUANT	0	Ich Offset (V)
ICHFILTER	IQUANT	1	Ich Filter
VCHRANGE	IQUANT	2	Vch Range
VCHRANGEMODE	TOGGLE	F	Vch Auto Range
VCHOFFSETENABLE	TOGGLE	F	Vch Offset Enable
VCHOFFSET	QUANT	0	Vch Offset (V)
VCHFILTER	IQUANT	1	Vch Filter
ACHRANGE	IQUANT	2	Ach Range
ACHOFFSETENABLE	TOGGLE	F	Ach Offset Enable
ACHOFFSET	QUANT	0	Ach Offset (V)
ACHFILTER	IQUANT	0	Ach Filter
IERANGELOWERLIMIT	IQUANT	2	I/E Range Lower Limit
IERANGEMODE	TOGGLE	F	I/E AutoRange
IERANGE	IQUANT	10	I/E Range
POSFEEDENABLE	TOGGLE	F	Positive Feedback IR Comp
POSFEEDRESISTANCE	QUANT	0	Positive Feedback Resistance (ohm)
ACHSELECT	IQUANT	0	Ach Select
SENSECABLEID	IQUANT	14	Sense Cable ID
PWRCABLEID	IQUANT	7	Power Cable ID
DCCALDATE	LABEL	11/9/2022	DC Calibration Date
ACCALDATE	LABEL	11/9/2022	AC Calibration Date
THERMOSELECT	IQUANT	1	Thermo Select
FRAMEWORKVERSION	LABEL	7.8.2	Framework Version
INSTRUMENTVERSION	LABEL	4.40	Instrument Version
COMPLIANCEVOLTAGE	IQUANT	0	Compliance Voltage
CURVE1	TABLE
	Pt	T	Vf	Im	Vu	Sig	Ach	IERange	Over	Temp
	#	s	V vs. Ref.	A	V	V	V	#	bits	deg C
	0	0.00015	4.98391E-001	4.51652E-005	0.00000E+000	5.00000E-001	-1.12927E-003	10	...........	-0.07
	30	0.00465	4.66891E-001	6.06406E-006	0.00000E+000	4.68500E-001	-1.22927E-003	10	...........	-0.07
	60	0.00915	4.35491E-001	-7.97226E-006	0.00000E+000	4.37000E-001	-1.42927E-003	10	...........	-0.07
	90	0.01365	4.04291E-001	-1.59930E-005	0.00000E+000	4.05500E-001	-1.22927E-003	10	...........	-0.07
	120	0.01815	3.72791E-001	-2.20086E-005	0.00000E+000	3.74000E-001	-7.29272E-004	10	...........	-0.07
	150	0.02265	3.40991E-001	-2.50164E-005	0.00000E+000	3.42500E-001	-1.32927E-003	10	...........	-0.07
	180	0.02715	3.09491E-001	-3.20345E-005	0.00000E+000	3.11000E-001	-1.02927E-003	10	...........	-0.07
	210	0.03165	2.78091E-001	-4.20605E-005	0.00000E+000	2.79500E-001	-1.22927E-003	10	...........	-0.07
	240	0.03615	2.46491E-001	-4.20605E-005	0.00000E+000	2.48000E-001	-1.02927E-003	10	...........	-0.07
	270	0.04065	2.15091E-001	-4.40656E-005	0.00000E+000	2.16500E-001	-1.22927E-003	10	...........	-0.07
	300	0.04515	1.83391E-001	-4.40656E-005	0.00000E+000	1.85000E-001	-1.42927E-003	10	...........	-0.07
	330	0.04965	1.52091E-001	-4.60708E-005	0.00000E+000	1.53500E-001	-9.29272E-004	10	...........	-0.07
	360	0.05415	1.20791E-001	-5.81020E-005	0.00000E+000	1.22000E-001	-7.29272E-004	10	...........	-0.07
	390	0.05865	8.89910E-002	-5.70994E-005	0.00000E+000	9.05000E-002	-1.02927E-003	10	...........	-0.07
	420	0.06315	5.75910E-002	-5.60968E-005	0.00000E+000	5.90000E-002	-1.02927E-003	10	...........	-0.07
	450	0.06765	2.62910E-002	-5.60968E-005	0.00000E+000	2.75000E-002	-1.02927E-003	10	...........	-0.07
	480	0.07215	-5.20900E-003	-5.60968E-005	0.00000E+000	-4.00001E-003	-1.02927E-003	10	...........	-0.07
	510	0.07665	-3.71090E-002	-6.01071E-005	0.00000E+000	-3.55000E-002	-1.22927E-003	10	...........	-0.07
	540	0.08115	-6.84090E-002	-6.51201E-005	0.00000E+000	-6.70000E-002	-1.02927E-003	10	...........	-0.07
	570	0.08565	-9.98090E-002	-6.51201E-005	0.00000E+000	-9.85000E-002	-1.32927E-003	10	...........	-0.07
	600	0.09015	-1.31409E-001	-6.41175E-005	0.00000E+000	-1.30000E-001	-1.32927E-003	10	...........	-0.07
	630	0.09465	-1.62709E-001	-6.61227E-005	0.00000E+000	-1.61500E-001	-1.42927E-003	10	...........	-0.07
	660	0.09915	-1.94309E-001	-7.41435E-005	0.00000E+000	-1.93000E-001	-1.32927E-003	10	...........	-0.07
	690	0.10365	-2.25909E-001	-7.31409E-005	0.00000E+000	-2.24500E-001	-1.42927E-003	10	...........	-0.07
	720	0.10815	-2.57009E-001	-7.81538E-005	0.00000E+000	-2.56000E-001	-1.02927E-003	10	...........	-0.07
	750	0.11265	-2.88809E-001	-8.91824E-005	0.00000E+000	-2.87500E-001	-1.12927E-003	10	...........	-0.07
	780	0.11715	-3.20409E-001	-9.31927E-005	0.00000E+000	-3.19000E-001	-1.22927E-003	10	...........	-0.07
	810	0.12165	-3.51709E-001	-1.10237E-004	0.00000E+000	-3.50500E-001	-1.02927E-003	10	...........	-0.07
	840	0.12615	-3.83109E-001	-1.22268E-004	0.00000E+000	-3.82000E-001	-9.29272E-004	10	...........	-0.07
	870	0.13065	-4.14709E-001	-1.58361E-004	0.00000E+000	-4.13500E-001	-1.02927E-003	10	...........	-0.07
	900	0.13515	-4.46309E-001	-2.42579E-004	0.00000E+000	-4.45000E-001	-1.32927E-003	10	...........	-0.07
	930	0.13965	-4.77609E-001	-3.62891E-004	0.00000E+000	-4.76500E-001	-1.22927E-003	10	...........	-0.07
	960	0.14415	-5.09209E-001	-4.96236E-004	0.00000E+000	-5.08000E-001	-1.12927E-003	10	...........	-0.07
	990	0.14865	-5.40809E-001	-7.16806E-004	0.00000E+000	-5.39500E-001	-1.32927E-003	10	...........	-0.07
	1020	0.15315	-5.72109E-001	-1.07975E-003	0.00000E+000	-5.71000E-001	-1.22927E-003	10	...........	-0.07
	1050	0.15765	-6.03609E-001	-1.34543E-003	0.00000E+000	-6.02500E-001	-1.12927E-003	10	...........	-0.07
	1080	0.16215	-6.34909E-001	-1.39356E-003	0.00000E+000	-6.34000E-001	-8.29272E-004	10	...........	-0.07
	1110	0.16665	-6.66309E-001	-1.30733E-003	0.00000E+000	-6.65500E-001	-8.29272E-004	10	...........	-0.07
	1140	0.17115	-6.97909E-001	-1.20306E-003	0.00000E+000	-6.97000E-001	-1.02927E-003	10	...........	-0.07
	1170	0.17565	-7.29609E-001	-1.10581E-003	0.00000E+000	-7.28500E-001	-1.32927E-003	10	...........	-0.07
	1200	0.18015	-7.61309E-001	-1.03062E-003	0.00000E+000	-7.60000E-001	-1.42927E-003	10	...........	-0.07
	1230	0.18465	-7.92809E-001	-9.67455E-004	0.00000E+000	-7.91500E-001	-1.12927E-003	10	...........	-0.07
	1260	0.18915	-8.23909E-001	-9.15320E-004	0.00000E+000	-8.23000E-001	-9.29272E-004	10	...........	-0.07
	1290	0.19365	-8.55709E-001	-8.67195E-004	0.00000E+000	-8.54500E-001	-1.42927E-003	10	...........	-0.07
	1320	0.19815	-8.86809E-001	-8.22079E-004	0.00000E+000	-8.86000E-001	-1.02927E-003	10	...........	-0.07
	1350	0.20265	-9.18509E-001	-7.82977E-004	0.00000E+000	-9.17500E-001	-1.22927E-003	10	...........	-0.07
	1380	0.20715	-9.50009E-001	-7.52900E-004	0.00000E+000	-9.49000E-001	-1.32927E-003	10	...........	-0.07
	1410	0.21165	-9.81409E-001	-7.35855E-004	0.00000E+000	-9.80500E-001	-1.12927E-003	10	...........	-0.07
	1440	0.21615	-9.90009E-001	-6.13539E-004	0.00000E+000	-9.88900E-001	-1.42927E-003	10	...........	-0.07
	1470	0.22065	-9.58409E-001	-5.08267E-004	0.00000E+000	-9.57400E-001	-1.22927E-003	10	...........	-0.07
	1500	0.22515	-9.26909E-001	-4.53124E-004	0.00000E+000	-9.25900E-001	-1.42927E-003	10	...........	-0.07
	1530	0.22965	-8.95609E-001	-4.13020E-004	0.00000E+000	-8.94400E-001	-1.52927E-003	10	...........	-0.07
	1560	0.23415	-8.63909E-001	-3.90963E-004	0.00000E+000	-8.62900E-001	-1.42927E-003	10	...........	-0.07
	1590	0.23865	-8.32509E-001	-3.62891E-004	0.00000E+000	-8.31400E-001	-1.22927E-003	10	...........	-0.07
	1620	0.24315	-8.01009E-001	-3.45846E-004	0.00000E+000	-7.99900E-001	-1.22927E-003	10	...........	-0.07
	1650	0.24765	-7.69509E-001	-3.15769E-004	0.00000E+000	-7.68400E-001	-1.42927E-003	10	...........	-0.07
	1680	0.25215	-7.38109E-001	-2.99727E-004	0.00000E+000	-7.36900E-001	-1.02927E-003	10	...........	-0.07
	1710	0.25665	-7.06409E-001	-2.66642E-004	0.00000E+000	-7.05400E-001	-1.22927E-003	10	...........	-0.07
	1740	0.26115	-6.75109E-001	-2.35561E-004	0.00000E+000	-6.73900E-001	-1.12927E-003	10	...........	-0.07
	1770	0.26565	-6.43609E-001	-1.77411E-004	0.00000E+000	-6.42400E-001	-1.02927E-003	10	...........	-0.07
	1800	0.27015	-6.12009E-001	-1.03219E-004	0.00000E+000	-6.10900E-001	-1.22927E-003	10	...........	-0.07
	1830	0.27465	-5.80409E-001	1.70926E-005	0.00000E+000	-5.79400E-001	-1.02927E-003	10	...........	-0.07
	1860	0.27915	-5.49209E-001	1.48432E-004	0.00000E+000	-5.47900E-001	-1.12927E-003	10	...........	-0.07
	1890	0.28365	-5.17609E-001	2.68744E-004	0.00000E+000	-5.16400E-001	-1.42927E-003	10	...........	-0.07
	1920	0.28815	-4.86009E-001	4.04094E-004	0.00000E+000	-4.84900E-001	-1.02927E-003	10	...........	-0.07
	1950	0.29265	-4.54509E-001	5.15382E-004	0.00000E+000	-4.53400E-001	-1.22927E-003	10	...........	-0.07
	1980	0.29715	-4.23009E-001	5.61501E-004	0.00000E+000	-4.21900E-001	-1.42927E-003	10	...........	-0.07
	2010	0.30165	-3.91509E-001	5.58493E-004	0.00000E+000	-3.90400E-001	-1.02927E-003	10	...........	-0.07
	2040	0.30615	-3.59909E-001	5.37439E-004	0.00000E+000	-3.58900E-001	-1.22927E-003	10	...........	-0.07
	2070	0.31065	-3.28409E-001	5.14379E-004	0.00000E+000	-3.27400E-001	-7.29272E-004	10	...........	-0.07
	2100	0.31515	-2.97109E-001	5.03351E-004	0.00000E+000	-2.95900E-001	-1.02927E-003	10	...........	-0.07
	2130	0.31965	-2.65709E-001	4.97335E-004	0.00000E+000	-2.64400E-001	-1.22927E-003	10	...........	-0.07
	2160	0.32415	-2.34209E-001	4.80291E-004	0.00000E+000	-2.32900E-001	-1.32927E-003	10	...........	-0.07
	2190	0.32865	-2.02709E-001	4.61242E-004	0.00000E+000	-2.01400E-001	-1.22927E-003	10	...........	-0.07
	2220	0.33315	-1.71209E-001	4.35174E-004	0.00000E+000	-1.69900E-001	-1.22927E-003	10	...........	-0.07
	2250	0.33765	-1.39709E-001	4.08104E-004	0.00000E+000	-1.38400E-001	-1.02927E-003	10	...........	-0.07
	2280	0.34215	-1.08209E-001	3.86047E-004	0.00000E+000	-1.06900E-001	-1.12927E-003	10	...........	-0.07
	2310	0.34665	-7.68090E-002	3.60982E-004	0.00000E+000	-7.54000E-002	-1.02927E-003	10	...........	-0.07
	2340	0.35115	-4.52090E-002	3.49954E-004	0.00000E+000	-4.39000E-002	-1.32927E-003	10	...........	-0.07
	2370	0.35565	-1.39090E-002	3.27897E-004	0.00000E+000	-1.24000E-002	-9.29272E-004	10	...........	-0.07
	2400	0.36015	1.75910E-002	3.25892E-004	0.00000E+000	1.91000E-002	-1.12927E-003	10	...........	-0.07
	2430	0.36465	4.91910E-002	3.19876E-004	0.00000E+000	5.06000E-002	-1.32927E-003	10	...........	-0.07
	2460	0.36915	8.08910E-002	3.15866E-004	0.00000E+000	8.21000E-002	-1.02927E-003	10	...........	-0.07
	2490	0.37365	1.12291E-001	3.15866E-004	0.00000E+000	1.13600E-001	-1.22927E-003	10	...........	-0.07
	2520	0.37815	1.43591E-001	3.28899E-004	0.00000E+000	1.45100E-001	-1.22927E-003	10	...........	-0.07
	2550	0.38265	1.75291E-001	3.36920E-004	0.00000E+000	1.76600E-001	-1.02927E-003	10	...........	-0.07
	2580	0.38715	2.06791E-001	3.44941E-004	0.00000E+000	2.08100E-001	-1.22927E-003	10	...........	-0.07
	2610	0.39165	2.38291E-001	3.37923E-004	0.00000E+000	2.39600E-001	-8.29272E-004	10	...........	-0.07
	2640	0.39615	2.69591E-001	3.27897E-004	0.00000E+000	2.71100E-001	-1.02927E-003	10	...........	-0.07
	2670	0.40065	3.01091E-001	3.13860E-004	0.00000E+000	3.02600E-001	-1.42927E-003	10	...........	-0.07
	2700	0.40515	3.32691E-001	2.95814E-004	0.00000E+000	3.34100E-001	-1.22927E-003	10	...........	-0.07
	2730	0.40965	3.64091E-001	2.82780E-004	0.00000E+000	3.65600E-001	-1.02927E-003	10	...........	-0.07
	2760	0.41415	3.95691E-001	2.66738E-004	0.00000E+000	3.97100E-001	-1.22927E-003	10	...........	-0.07
	2790	0.41865	4.27191E-001	2.58718E-004	0.00000E+000	4.28600E-001	-1.22927E-003	10	...........	-0.07
	2820	0.42315	4.58591E-001	2.56713E-004	0.00000E+000	4.60100E-001	-1.62927E-003	10	...........	-0.07
	2850	0.42765	4.90091E-001	2.39668E-004	0.00000E+000	4.91600E-001	-1.02927E-003	10	...........	-0.07
	2858	0.42885	4.98491E-001	2.44681E-004	0.00000E+000	5.00000E-001	-1.32927E-003	10	...........	-0.07
CURVE2	TABLE
	Pt	T	Vf	Im	Vu	Sig	Ach	IERange	Over	Temp
	#	s	V vs. Ref.	A	V	V	V	#	bits	deg C
	2859	0.429	4.98591E-001	2.42676E-004	0.00000E+000	5.00000E-001	-1.12927E-003	10	...........	-0.07