File: data/02-SI/Figures_S9_S11_RDE/15btmapaq-rde/1mkcl-15btmapaq-nitrogen-6000mvpers.DTA
EXPLAIN
TAG	CV
TITLE	LABEL	Cyclic Voltammetry	Test &Identifier
DATE	LABEL	1/31/2023	Date
TIME	LABEL	18:21:54	Time
NOTES	NOTES	1	&Notes...

PSTAT	PSTAT	REF3000-21108	Potentiostat
VINIT	POTEN	5.00000E-001	F	Initial &E (V)
VLIMIT1	POTEN	-1.00000E+000	F	Scan Limit &1 (V)
VLIMIT2	POTEN	5.00000E-001	F	Scan Limit &2 (V)
VFINAL	POTEN	5.00000E-001	F	Final &E (V)
SCANRATE	QUANT	5.99999E+003	&Scan Rate (mV/s)
STEPSIZE	QUANT	1.00000E+000	St&ep Size (mV)
CYCLES	IQUANT	1	C&ycles (#)
IMODE	SELECTOR	1	I/E Range &Mode
IRANGE	QUANT	1.00000E+001	&Max Current (mA)
AREA	QUANT	1.00000E+000	Electrode &Area (cm^2)
ELECTRODETYPE	SELECTOR	0	Electrode Type
STRIPPING	TOGGLE	F	Used for Stripping
POLARITY	TOGGLE	F	Signal Polarity
CONDIT	TWOPARAM	F	1.50000E+001	0.00000E+000	Conditionin&g	Time(s)	E(V)
DELAY	TWOPARAM	F	5.00000E+000	0.00000E+000	Init. De&lay	Time(s)	Stab.(mV/s)
EQDELAY	QUANT	0.00000E+000	Equil. &Time (s)
IRCOMP	SELECTOR	0	IRCom&p
PFCOR	QUANT	5.00000E+001	PF Corr. (ohm)
SAMPLINGMODE	SELECTOR	1	Sampling &Mode
EOC	QUANT	0	Open Circuit (V)
PSTATMODEL	IQUANT	5	Pstat Model
PSTATSECTION	LABEL	REF3000-21108	Pstat Section
PSTATSERIALNO	LABEL	21108	Pstat Serial Number
CTRLMODE	IQUANT	1	Control Mode
ELECTROMETER	IQUANT	0	RE=0 or CS=1
IESTAB	IQUANT	2	I/E Stability
CASPEED	IQUANT	4	Control Amp Speed
CONVENTION	IQUANT	1	Current Convention
ICHRANGE	IQUANT	2	Ich Range
ICHRANGEMODE	TOGGLE	F	Ich Auto Range
ICHOFFSETENABLE	TOGGLE	F	Ich Offset Enable
ICHOFFSET	QUANT	0	Ich Offset (V)
ICHFILTER	IQUANT	1	Ich Filter
VCHRANGE	IQUANT	2	Vch Range
VCHRANGEMODE	TOGGLE	F	Vch Auto Range
VCHOFFSETENABLE	TOGGLE	F	Vch Offset Enable
VCHOFFSET	QUANT	0	Vch Offset (V)
VCHFILTER	IQUANT	1	Vch Filter
ACHRANGE	IQUANT	2	Ach Range
ACHOFFSETENABLE	TOGGLE	F	Ach Offset Enable
ACHOFFSET	QUANT	0	Ach Offset (V)
ACHFILTER	IQUANT	0	Ach Filter
IERANGELOWERLIMIT	IQUANT	2	I/E Range Lower Limit
IERANGEMODE	TOGGLE	F	I/E AutoRange
IERANGE	IQUANT	10	I/E Range
POSFEEDENABLE	TOGGLE	F	Positive Feedback IR Comp
POSFEEDRESISTANCE	QUANT	0	Positive Feedback Resistance (ohm)
ACHSELECT	IQUANT	0	Ach Select
SENSECABLEID	IQUANT	14	Sense Cable ID
PWRCABLEID	IQUANT	7	Power Cable ID
DCCALDATE	LABEL	11/9/2022	DC Calibration Date
ACCALDATE	LABEL	11/9/2022	AC Calibration Date
THERMOSELECT	IQUANT	1	Thermo Select
FRAMEWORKVERSION	LABEL	7.8.2	Framework Version
INSTRUMENTVERSION	LABEL	4.40	Instrument Version
COMPLIANCEVOLTAGE	IQUANT	0	Compliance Voltage
CURVE1	TABLE
	Pt	T	Vf	Im	Vu	Sig	Ach	IERange	Over	Temp
	#	s	V vs. Ref.	A	V	V	V	#	bits	deg C
	0	0.000167	4.98691E-001	3.21315E-005	0.00000E+000	5.00000E-001	-6.29272E-004	10	..........a	-327.74
	32	0.0055	4.66591E-001	-5.96707E-006	0.00000E+000	4.68000E-001	-9.29272E-004	10	..........a	-327.74
	64	0.010833	4.34641E-001	-1.04787E-005	0.00000E+000	4.36000E-001	-8.29272E-004	10	..........a	-327.74
	96	0.016167	4.02641E-001	-1.79982E-005	0.00000E+000	4.04000E-001	-7.29272E-004	10	..........a	-327.74
	128	0.0215	3.70741E-001	-2.60190E-005	0.00000E+000	3.72000E-001	-5.29272E-004	10	..........a	-327.74
	160	0.026833	3.38791E-001	-2.95280E-005	0.00000E+000	3.40000E-001	-8.29272E-004	10	..........a	-327.74
	192	0.032167	3.06791E-001	-3.25358E-005	0.00000E+000	3.08000E-001	-8.29272E-004	10	..........a	-327.74
	224	0.0375	2.74641E-001	-3.25358E-005	0.00000E+000	2.76000E-001	-7.29272E-004	10	..........a	-327.74
	256	0.042833	2.42791E-001	-3.55436E-005	0.00000E+000	2.44000E-001	-7.29272E-004	10	..........a	-327.74
	288	0.048167	2.10741E-001	-3.95540E-005	0.00000E+000	2.12000E-001	-7.29272E-004	10	..........a	-327.74
	320	0.0535	1.78791E-001	-4.55695E-005	0.00000E+000	1.80000E-001	-7.29272E-004	10	..........a	-327.74
	352	0.058833	1.46841E-001	-4.50682E-005	0.00000E+000	1.48000E-001	-7.29272E-004	10	..........a	-327.74
	384	0.064167	1.14791E-001	-5.00812E-005	0.00000E+000	1.16000E-001	-7.29272E-004	10	..........a	-327.74
	416	0.0695	8.27910E-002	-5.05825E-005	0.00000E+000	8.40000E-002	-9.29272E-004	10	..........a	-327.74
	448	0.074833	5.07910E-002	-5.25877E-005	0.00000E+000	5.20000E-002	-8.29272E-004	10	..........a	-327.74
	480	0.080167	1.88410E-002	-5.30890E-005	0.00000E+000	2.00000E-002	-7.29272E-004	10	..........a	-327.74
	512	0.0855	-1.31590E-002	-5.65981E-005	0.00000E+000	-1.20000E-002	-8.29272E-004	10	..........a	-327.74
	544	0.090833	-4.51590E-002	-5.35903E-005	0.00000E+000	-4.40000E-002	-7.29272E-004	10	..........a	-327.74
	576	0.096167	-7.71090E-002	-5.45929E-005	0.00000E+000	-7.60000E-002	-6.29272E-004	10	..........a	-327.74
	608	0.1015	-1.09109E-001	-5.91046E-005	0.00000E+000	-1.08000E-001	-8.29272E-004	10	..........a	-327.74
	640	0.106833	-1.41159E-001	-6.06084E-005	0.00000E+000	-1.40000E-001	-7.29272E-004	10	..........a	-327.74
	672	0.112167	-1.73109E-001	-6.11097E-005	0.00000E+000	-1.72000E-001	-8.29272E-004	10	..........a	-327.74
	704	0.1175	-2.05109E-001	-6.76266E-005	0.00000E+000	-2.04000E-001	-9.29272E-004	10	..........a	-327.74
	736	0.122833	-2.37109E-001	-7.16370E-005	0.00000E+000	-2.36000E-001	-7.29272E-004	10	..........a	-327.74
	768	0.128167	-2.69109E-001	-7.81538E-005	0.00000E+000	-2.68000E-001	-6.29272E-004	10	..........a	-327.74
	800	0.1335	-3.00959E-001	-8.16629E-005	0.00000E+000	-3.00000E-001	-8.29272E-004	10	..........a	-327.74
	832	0.138833	-3.33059E-001	-9.11876E-005	0.00000E+000	-3.32000E-001	-7.29272E-004	10	..........a	-327.74
	864	0.144167	-3.64959E-001	-1.04723E-004	0.00000E+000	-3.64000E-001	-7.29272E-004	10	..........a	-327.74
	896	0.1495	-3.97059E-001	-1.25276E-004	0.00000E+000	-3.96000E-001	-7.29272E-004	10	..........a	-327.74
	928	0.154833	-4.29009E-001	-1.72398E-004	0.00000E+000	-4.28000E-001	-7.29272E-004	10	..........a	-327.74
	960	0.160167	-4.60959E-001	-2.78673E-004	0.00000E+000	-4.60000E-001	-6.29272E-004	10	..........a	-327.74
	992	0.1655	-4.93059E-001	-3.99485E-004	0.00000E+000	-4.92000E-001	-9.29272E-004	10	..........a	-327.74
	1024	0.170833	-5.25059E-001	-5.49874E-004	0.00000E+000	-5.24000E-001	-7.29272E-004	10	..........a	-327.74
	1056	0.176167	-5.57059E-001	-8.43133E-004	0.00000E+000	-5.56000E-001	-9.29272E-004	10	..........a	-327.74
	1088	0.1815	-5.88959E-001	-1.16446E-003	0.00000E+000	-5.88000E-001	-8.29272E-004	10	..........a	-327.74
	1120	0.186833	-6.20959E-001	-1.28979E-003	0.00000E+000	-6.20000E-001	-7.29272E-004	10	..........a	-327.74
	1152	0.192167	-6.52859E-001	-1.23916E-003	0.00000E+000	-6.52000E-001	-9.29272E-004	10	..........a	-327.74
	1184	0.1975	-6.85009E-001	-1.13188E-003	0.00000E+000	-6.84000E-001	-7.29272E-004	10	..........a	-327.74
	1216	0.202833	-7.16759E-001	-1.03463E-003	0.00000E+000	-7.16000E-001	-6.29272E-004	10	..........a	-327.74
	1248	0.208167	-7.48809E-001	-9.60938E-004	0.00000E+000	-7.48000E-001	-7.29272E-004	10	..........a	-327.74
	1280	0.2135	-7.80859E-001	-8.95268E-004	0.00000E+000	-7.80000E-001	-8.29272E-004	10	..........a	-327.74
	1312	0.218833	-8.12859E-001	-8.44637E-004	0.00000E+000	-8.12000E-001	-8.29272E-004	10	..........a	-327.74
	1344	0.224167	-8.44759E-001	-7.97014E-004	0.00000E+000	-8.44000E-001	-8.29272E-004	10	..........a	-327.74
	1376	0.2295	-8.76709E-001	-7.56910E-004	0.00000E+000	-8.76000E-001	-8.29272E-004	10	..........a	-327.74
	1408	0.234833	-9.08709E-001	-7.23824E-004	0.00000E+000	-9.08000E-001	-7.29272E-004	10	..........a	-327.74
	1440	0.240167	-9.40759E-001	-6.93245E-004	0.00000E+000	-9.40000E-001	-9.29272E-004	10	..........a	-327.74
	1472	0.2455	-9.72859E-001	-6.72191E-004	0.00000E+000	-9.72000E-001	-8.29272E-004	10	..........a	-327.74
	1504	0.250833	-9.96759E-001	-6.03012E-004	0.00000E+000	-9.96000E-001	-7.29272E-004	10	..........a	-327.74
	1536	0.256167	-9.64759E-001	-4.80194E-004	0.00000E+000	-9.64000E-001	-9.29272E-004	10	..........a	-327.74
	1568	0.2615	-9.32909E-001	-4.28560E-004	0.00000E+000	-9.32000E-001	-8.29272E-004	10	..........a	-327.74
	1600	0.266833	-9.00809E-001	-3.89459E-004	0.00000E+000	-9.00000E-001	-6.29272E-004	10	..........a	-327.74
	1632	0.272167	-8.68809E-001	-3.68906E-004	0.00000E+000	-8.68000E-001	-7.29272E-004	10	..........a	-327.74
	1664	0.2775	-8.36859E-001	-3.47350E-004	0.00000E+000	-8.36000E-001	-9.29272E-004	10	..........a	-327.74
	1696	0.282833	-8.04809E-001	-3.27298E-004	0.00000E+000	-8.04000E-001	-6.29272E-004	10	..........a	-327.74
	1728	0.288167	-7.72809E-001	-3.05743E-004	0.00000E+000	-7.72000E-001	-6.29272E-004	10	..........a	-327.74
	1760	0.2935	-7.40859E-001	-2.82683E-004	0.00000E+000	-7.40000E-001	-7.29272E-004	10	..........a	-327.74
	1792	0.298833	-7.08809E-001	-2.56114E-004	0.00000E+000	-7.08000E-001	-8.29272E-004	10	..........a	-327.74
	1824	0.304167	-6.76959E-001	-2.26036E-004	0.00000E+000	-6.76000E-001	-9.29272E-004	10	..........a	-327.74
	1856	0.3095	-6.44959E-001	-1.83928E-004	0.00000E+000	-6.44000E-001	-7.29272E-004	10	..........a	-327.74
	1888	0.314833	-6.12909E-001	-1.04221E-004	0.00000E+000	-6.12000E-001	-7.29272E-004	10	..........a	-327.74
	1920	0.320167	-5.80909E-001	7.06665E-006	0.00000E+000	-5.80000E-001	-8.29272E-004	10	..........a	-327.74
	1952	0.3255	-5.48959E-001	1.25874E-004	0.00000E+000	-5.48000E-001	-8.29272E-004	10	..........a	-327.74
	1984	0.330833	-5.17059E-001	2.51198E-004	0.00000E+000	-5.16000E-001	-8.29272E-004	10	..........a	-327.74
	2016	0.336167	-4.84959E-001	3.71008E-004	0.00000E+000	-4.84000E-001	-8.29272E-004	10	..........a	-327.74
	2048	0.3415	-4.53159E-001	4.80291E-004	0.00000E+000	-4.52000E-001	-9.29272E-004	10	..........a	-327.74
	2080	0.346833	-4.20959E-001	5.21899E-004	0.00000E+000	-4.20000E-001	-6.29272E-004	10	..........a	-327.74
	2112	0.352167	-3.89159E-001	5.05857E-004	0.00000E+000	-3.88000E-001	-8.29272E-004	10	..........a	-327.74
	2144	0.3575	-3.57109E-001	4.87309E-004	0.00000E+000	-3.56000E-001	-7.29272E-004	10	..........a	-327.74
	2176	0.362833	-3.25059E-001	4.67759E-004	0.00000E+000	-3.24000E-001	-7.29272E-004	10	..........a	-327.74
	2208	0.368167	-2.93109E-001	4.58234E-004	0.00000E+000	-2.92000E-001	-8.29272E-004	10	..........a	-327.74
	2240	0.3735	-2.61109E-001	4.46203E-004	0.00000E+000	-2.60000E-001	-6.29272E-004	10	..........a	-327.74
	2272	0.378833	-2.29059E-001	4.33670E-004	0.00000E+000	-2.28000E-001	-8.29272E-004	10	..........a	-327.74
	2304	0.384167	-1.97109E-001	4.07102E-004	0.00000E+000	-1.96000E-001	-8.29272E-004	10	..........a	-327.74
	2336	0.3895	-1.65109E-001	3.88052E-004	0.00000E+000	-1.64000E-001	-8.29272E-004	10	..........a	-327.74
	2368	0.394833	-1.33209E-001	3.59478E-004	0.00000E+000	-1.32000E-001	-8.29272E-004	10	..........a	-327.74
	2400	0.400167	-1.01209E-001	3.39928E-004	0.00000E+000	-1.00000E-001	-8.29272E-004	10	..........a	-327.74
	2432	0.4055	-6.91090E-002	3.21881E-004	0.00000E+000	-6.80000E-002	-8.29272E-004	10	..........a	-327.74
	2464	0.410833	-3.72090E-002	3.07845E-004	0.00000E+000	-3.60000E-002	-8.29272E-004	10	..........a	-327.74
	2496	0.416167	-5.20900E-003	2.97318E-004	0.00000E+000	-4.00001E-003	-8.29272E-004	10	..........a	-327.74
	2528	0.4215	2.67910E-002	2.88796E-004	0.00000E+000	2.80000E-002	-9.29272E-004	10	..........a	-327.74
	2560	0.426833	5.88410E-002	2.86289E-004	0.00000E+000	6.00000E-002	-9.29272E-004	10	..........a	-327.74
	2592	0.432167	9.07910E-002	2.87793E-004	0.00000E+000	9.20000E-002	-8.29272E-004	10	..........a	-327.74
	2624	0.4375	1.22841E-001	2.91803E-004	0.00000E+000	1.24000E-001	-8.29272E-004	10	..........a	-327.74
	2656	0.442833	1.54791E-001	2.94310E-004	0.00000E+000	1.56000E-001	-8.29272E-004	10	..........a	-327.74
	2688	0.448167	1.86841E-001	3.03333E-004	0.00000E+000	1.88000E-001	-8.29272E-004	10	..........a	-327.74
	2720	0.4535	2.18841E-001	3.05338E-004	0.00000E+000	2.20000E-001	-8.29272E-004	10	..........a	-327.74
	2752	0.458833	2.50741E-001	2.98822E-004	0.00000E+000	2.52000E-001	-1.02927E-003	10	..........a	-327.74
	2784	0.464167	2.82791E-001	2.86790E-004	0.00000E+000	2.84000E-001	-1.02927E-003	10	..........a	-327.74
	2816	0.4695	3.14791E-001	2.67741E-004	0.00000E+000	3.16000E-001	-8.29272E-004	10	..........a	-327.74
	2848	0.474833	3.46741E-001	2.58216E-004	0.00000E+000	3.48000E-001	-8.29272E-004	10	..........a	-327.74
	2880	0.480167	3.78791E-001	2.43679E-004	0.00000E+000	3.80000E-001	-7.29272E-004	10	..........a	-327.74
	2912	0.4855	4.10691E-001	2.32650E-004	0.00000E+000	4.12000E-001	-8.29272E-004	10	..........a	-327.74
	2944	0.490833	4.42691E-001	2.25131E-004	0.00000E+000	4.44000E-001	-9.29272E-004	10	..........a	-327.74
	2976	0.496167	4.74591E-001	2.21622E-004	0.00000E+000	4.76000E-001	-8.29272E-004	10	..........a	-327.74
	3000	0.500167	4.98491E-001	2.18614E-004	0.00000E+000	5.00000E-001	-7.29272E-004	10	..........a	-327.74
CURVE2	TABLE
	Pt	T	Vf	Im	Vu	Sig	Ach	IERange	Over	Temp
	#	s	V vs. Ref.	A	V	V	V	#	bits	deg C
	3001	0.500333	4.98591E-001	2.06583E-004	0.00000E+000	5.00000E-001	-8.29272E-004	10	..........a	-327.74