File: data/02-SI/Figures_S9_S11_RDE/15btmapaq-rde/1mkcl-5mmolar15btmapaq-nitrogen-rde400mvpers-50mvpers.DTA
EXPLAIN
TAG	LSV
TITLE	LABEL	Linear Sweep Voltammetry	Test &Identifier
DATE	LABEL	1/31/2023	Date
TIME	LABEL	18:23:51	Time
NOTES	NOTES	1	&Notes...

PSTAT	PSTAT	REF3000-21108	Potentiostat
VINIT	POTEN	5.00000E-001	F	&Initial E (V)
VFINAL	POTEN	-1.00000E+000	F	&Final E (V)
SCANRATE	QUANT	4.99999E+001	&Scan Rate (mV/s)
STEPSIZE	QUANT	1.00000E-001	St&ep Size (mV)
IMODE	SELECTOR	0	I/E Range &Mode
IRANGE	QUANT	1.00000E+002	&Max Current (mA)
AREA	QUANT	1.00000E+000	Electrode &Area (cm^2)
ELECTRODETYPE	SELECTOR	0	Electrode Type
STRIPPING	TOGGLE	F	Used for Stripping
POLARITY	TOGGLE	F	Signal Polarity
CONDIT	TWOPARAM	F	1.50000E+001	0.00000E+000	Conditionin&g	Time(s)	E(V)
DELAY	TWOPARAM	F	3.00000E+001	0.00000E+000	Init. De&lay	Time(s)	Stab.(mV/s)
EQDELAY	QUANT	0.00000E+000	Equil. &Time (s)
IRCOMP	SELECTOR	0	IRCom&p
PFCOR	QUANT	5.00000E+001	PF Corr. (ohm)
SAMPLINGMODE	SELECTOR	1	Sampling &Mode
EOC	QUANT	0	Open Circuit (V)
PSTATMODEL	IQUANT	5	Pstat Model
PSTATSECTION	LABEL	REF3000-21108	Pstat Section
PSTATSERIALNO	LABEL	21108	Pstat Serial Number
CTRLMODE	IQUANT	1	Control Mode
ELECTROMETER	IQUANT	0	RE=0 or CS=1
IESTAB	IQUANT	2	I/E Stability
CASPEED	IQUANT	4	Control Amp Speed
CONVENTION	IQUANT	1	Current Convention
ICHRANGE	IQUANT	2	Ich Range
ICHRANGEMODE	TOGGLE	F	Ich Auto Range
ICHOFFSETENABLE	TOGGLE	F	Ich Offset Enable
ICHOFFSET	QUANT	0	Ich Offset (V)
ICHFILTER	IQUANT	2	Ich Filter
VCHRANGE	IQUANT	2	Vch Range
VCHRANGEMODE	TOGGLE	T	Vch Auto Range
VCHOFFSETENABLE	TOGGLE	F	Vch Offset Enable
VCHOFFSET	QUANT	0	Vch Offset (V)
VCHFILTER	IQUANT	2	Vch Filter
ACHRANGE	IQUANT	2	Ach Range
ACHOFFSETENABLE	TOGGLE	F	Ach Offset Enable
ACHOFFSET	QUANT	0	Ach Offset (V)
ACHFILTER	IQUANT	0	Ach Filter
IERANGELOWERLIMIT	IQUANT	2	I/E Range Lower Limit
IERANGEMODE	TOGGLE	T	I/E AutoRange
IERANGE	IQUANT	11	I/E Range
POSFEEDENABLE	TOGGLE	F	Positive Feedback IR Comp
POSFEEDRESISTANCE	QUANT	0	Positive Feedback Resistance (ohm)
ACHSELECT	IQUANT	0	Ach Select
SENSECABLEID	IQUANT	14	Sense Cable ID
PWRCABLEID	IQUANT	7	Power Cable ID
DCCALDATE	LABEL	11/9/2022	DC Calibration Date
ACCALDATE	LABEL	11/9/2022	AC Calibration Date
THERMOSELECT	IQUANT	1	Thermo Select
FRAMEWORKVERSION	LABEL	7.8.2	Framework Version
INSTRUMENTVERSION	LABEL	4.40	Instrument Version
COMPLIANCEVOLTAGE	IQUANT	0	Compliance Voltage
CURVE	TABLE	15001
	Pt	T	Vf	Im	Vu	Sig	Ach	IERange	Over	Cycle	Temp
	#	s	V vs. Ref.	A	V	V	V	#	bits	#	deg C
	0	0.002	4.99788E-001	-5.29867E-005	0.00000E+000	5.00000E-001	-7.95939E-004	11	..........a	0	-327.74
	158	0.318	4.82927E-001	3.06838E-006	0.00000E+000	4.84200E-001	-8.70939E-004	8	..........a	0	-327.74
	316	0.634	4.67147E-001	1.58350E-006	0.00000E+000	4.68400E-001	-8.54272E-004	8	..........a	0	-327.74
	474	0.95	4.51322E-001	1.08146E-006	0.00000E+000	4.52600E-001	-8.70939E-004	8	..........a	0	-327.74
	632	1.266	4.35581E-001	7.88563E-007	0.00000E+000	4.36800E-001	-8.79272E-004	8	..........a	0	-327.74
	790	1.582	4.19772E-001	5.31084E-007	0.00000E+000	4.21000E-001	-8.45939E-004	8	..........a	0	-327.74
	948	1.898	4.04052E-001	4.36508E-007	0.00000E+000	4.05200E-001	-8.87605E-004	8	..........a	0	-327.74
	1106	2.214	3.88227E-001	3.52348E-007	0.00000E+000	3.89400E-001	-8.87605E-004	8	..........a	0	-327.74
	1264	2.53	3.72447E-001	2.38191E-007	0.00000E+000	3.73600E-001	-8.70939E-004	8	..........a	0	-327.74
	1422	2.846	3.56639E-001	2.33608E-007	0.00000E+000	3.57800E-001	-8.20939E-004	8	..........a	0	-327.74
	1580	3.162	3.40814E-001	1.76529E-007	0.00000E+000	3.42000E-001	-8.54272E-004	8	..........a	0	-327.74
	1738	3.478	3.25085E-001	4.48730E-008	0.00000E+000	3.26200E-001	-8.54272E-004	8	..........a	0	-327.74
	1896	3.794	3.09243E-001	1.48754E-008	0.00000E+000	3.10400E-001	-8.54272E-004	8	..........a	0	-327.74
	2054	4.11	2.93464E-001	3.86235E-008	0.00000E+000	2.94600E-001	-8.62605E-004	8	..........a	0	-327.74
	2212	4.426	2.77714E-001	-2.62320E-009	0.00000E+000	2.78800E-001	-8.54272E-004	8	..........a	0	-327.74
	2370	4.742	2.61897E-001	-4.92861E-008	0.00000E+000	2.63000E-001	-8.20939E-004	8	..........a	0	-327.74
	2528	5.058	2.46039E-001	-2.47048E-008	0.00000E+000	2.47200E-001	-8.37606E-004	8	..........a	0	-327.74
	2686	5.374	2.30183E-001	-7.26176E-008	0.00000E+000	2.31400E-001	-9.04272E-004	8	..........a	0	-327.74
	2844	5.69	2.14395E-001	-6.84513E-008	0.00000E+000	2.15600E-001	-8.87605E-004	8	..........a	0	-327.74
	3002	6.006	1.98587E-001	-1.59277E-007	0.00000E+000	1.99800E-001	-8.70939E-004	8	..........a	0	-327.74
	3160	6.322	1.82796E-001	-5.88687E-008	0.00000E+000	1.84000E-001	-8.37606E-004	8	..........a	0	-327.74
	3318	6.638	1.67020E-001	-1.30946E-007	0.00000E+000	1.68200E-001	-8.54272E-004	8	..........a	0	-327.74
	3476	6.954	1.51206E-001	-1.63027E-007	0.00000E+000	1.52400E-001	-8.37606E-004	8	..........a	0	-327.74
	3634	7.27	1.35449E-001	-1.16364E-007	0.00000E+000	1.36600E-001	-8.29272E-004	8	..........a	0	-327.74
	3792	7.586	1.19626E-001	-1.47195E-007	0.00000E+000	1.20800E-001	-8.70939E-004	8	..........a	0	-327.74
	3950	7.902	1.03839E-001	-1.05948E-007	0.00000E+000	1.05000E-001	-8.54272E-004	8	..........a	0	-327.74
	4108	8.218	8.80547E-002	-2.40937E-007	0.00000E+000	8.92000E-002	-8.54272E-004	8	..........a	0	-327.74
	4266	8.534	7.22739E-002	-1.71360E-007	0.00000E+000	7.34000E-002	-8.70939E-004	8	..........a	0	-327.74
	4424	8.85	5.64747E-002	-2.48853E-007	0.00000E+000	5.76000E-002	-8.70939E-004	8	..........a	0	-327.74
	4582	9.166	4.06601E-002	-2.71352E-007	0.00000E+000	4.18000E-002	-8.12605E-004	8	..........a	0	-327.74
	4740	9.482	2.48881E-002	-2.68435E-007	0.00000E+000	2.60000E-002	-8.45939E-004	8	..........a	0	-327.74
	4898	9.798	9.08085E-003	-2.15106E-007	0.00000E+000	1.02000E-002	-8.70939E-004	8	..........a	0	-327.74
	5056	10.114	-6.71040E-003	-3.16348E-007	0.00000E+000	-5.60001E-003	-7.70939E-004	8	..........a	0	-327.74
	5214	10.43	-2.24920E-002	-2.66352E-007	0.00000E+000	-2.14000E-002	-8.87605E-004	8	..........a	0	-327.74
	5372	10.746	-3.82999E-002	-4.63836E-007	0.00000E+000	-3.72000E-002	-8.37606E-004	8	..........a	0	-327.74
	5530	11.062	-5.40861E-002	-3.79260E-007	0.00000E+000	-5.30000E-002	-8.37606E-004	8	..........a	0	-327.74
	5688	11.378	-6.98757E-002	-4.45504E-007	0.00000E+000	-6.88000E-002	-8.37606E-004	8	..........a	0	-327.74
	5846	11.694	-8.56724E-002	-4.69252E-007	0.00000E+000	-8.46000E-002	-8.20939E-004	8	..........a	0	-327.74
	6004	12.01	-1.01452E-001	-7.25898E-007	0.00000E+000	-1.00400E-001	-8.37606E-004	8	..........a	0	-327.74
	6162	12.326	-1.17269E-001	-9.42964E-007	0.00000E+000	-1.16200E-001	-8.70939E-004	8	..........a	0	-327.74
	6320	12.642	-1.33037E-001	-1.16336E-006	0.00000E+000	-1.32000E-001	-8.29272E-004	8	..........a	0	-327.74
	6478	12.958	-1.48830E-001	-1.56000E-006	0.00000E+000	-1.47800E-001	-7.95939E-004	8	..........a	0	-327.74
	6636	13.274	-1.64634E-001	-2.18161E-006	0.00000E+000	-1.63600E-001	-8.29272E-004	8	..........a	0	-327.74
	6794	13.59	-1.80419E-001	-3.06779E-006	0.00000E+000	-1.79400E-001	-8.70939E-004	8	..........a	0	-327.74
	6952	13.906	-1.96199E-001	-4.20729E-006	0.00000E+000	-1.95200E-001	-8.37606E-004	8	..........a	0	-327.74
	7110	14.222	-2.12013E-001	-5.50010E-006	0.00000E+000	-2.11000E-001	-8.37606E-004	8	..........a	0	-327.74
	7268	14.538	-2.27784E-001	-7.37328E-006	0.00000E+000	-2.26800E-001	-8.37606E-004	8	..........a	0	-327.74
	7426	14.854	-2.43587E-001	-9.34271E-006	0.00000E+000	-2.42600E-001	-8.20939E-004	8	..........a	0	-327.74
	7584	15.17	-2.59377E-001	-1.12684E-005	0.00000E+000	-2.58400E-001	-7.95939E-004	8	..........a	0	-327.74
	7742	15.486	-2.75119E-001	-1.31949E-005	0.00000E+000	-2.74200E-001	-7.87605E-004	8	..........a	0	-327.74
	7900	15.802	-2.90944E-001	-1.48685E-005	0.00000E+000	-2.90000E-001	-8.45939E-004	8	..........a	0	-327.74
	8058	16.118	-3.06728E-001	-1.64205E-005	0.00000E+000	-3.05800E-001	-8.20939E-004	8	..........a	0	-327.74
	8216	16.434	-3.22486E-001	-1.78183E-005	0.00000E+000	-3.21600E-001	-8.20939E-004	8	..........a	0	-327.74
	8374	16.75	-3.38228E-001	-1.90832E-005	0.00000E+000	-3.37400E-001	-7.95939E-004	8	..........a	0	-327.74
	8532	17.066	-3.54032E-001	-2.04127E-005	0.00000E+000	-3.53200E-001	-8.12605E-004	8	..........a	0	-327.74
	8690	17.382	-3.69828E-001	-2.16355E-005	0.00000E+000	-3.69000E-001	-8.37606E-004	8	..........a	0	-327.74
	8848	17.698	-3.85644E-001	-2.35057E-005	0.00000E+000	-3.84800E-001	-8.45939E-004	8	..........a	0	-327.74
	9006	18.014	-4.01486E-001	-2.67196E-005	0.00000E+000	-4.00600E-001	-8.54272E-004	8	..........a	0	-327.74
	9164	18.33	-4.17223E-001	-3.17613E-005	0.00000E+000	-4.16400E-001	-8.45939E-004	8	..........a	0	-327.74
	9322	18.646	-4.33057E-001	-3.84437E-005	0.00000E+000	-4.32200E-001	-8.12605E-004	8	..........a	0	-327.74
	9480	18.962	-4.48794E-001	-4.67843E-005	0.00000E+000	-4.48000E-001	-8.04272E-004	8	..........a	0	-327.74
	9638	19.278	-4.64557E-001	-5.71789E-005	0.00000E+000	-4.63800E-001	-8.62605E-004	8	..........a	0	-327.74
	9796	19.594	-4.80382E-001	-6.99862E-005	0.00000E+000	-4.79600E-001	-8.45939E-004	8	..........a	0	-327.74
	9954	19.91	-4.96207E-001	-8.52870E-005	0.00000E+000	-4.95400E-001	-8.54272E-004	8	..........a	0	-327.74
	10112	20.226	-5.11919E-001	-1.05269E-004	0.00000E+000	-5.11200E-001	-8.20939E-004	8	..........a	0	-327.74
	10270	20.542	-5.27669E-001	-1.30335E-004	0.00000E+000	-5.27000E-001	-8.62605E-004	8	..........a	0	-327.74
	10428	20.858	-5.43503E-001	-1.57707E-004	0.00000E+000	-5.42800E-001	-7.87605E-004	8	..........a	0	-327.74
	10586	21.174	-5.59215E-001	-1.82939E-004	0.00000E+000	-5.58600E-001	-8.87605E-004	8	..........a	0	-327.74
	10744	21.49	-5.74944E-001	-2.02009E-004	0.00000E+000	-5.74400E-001	-8.45939E-004	8	..........a	0	-327.74
	10902	21.806	-5.90761E-001	-2.13638E-004	0.00000E+000	-5.90200E-001	-8.45939E-004	8	..........a	0	-327.74
	11060	22.122	-6.06561E-001	-2.19325E-004	0.00000E+000	-6.06000E-001	-8.87605E-004	8	..........a	0	-327.74
	11218	22.438	-6.22353E-001	-2.21718E-004	0.00000E+000	-6.21800E-001	-8.29272E-004	8	..........a	0	-327.74
	11376	22.754	-6.38111E-001	-2.22685E-004	0.00000E+000	-6.37600E-001	-8.54272E-004	8	..........a	0	-327.74
	11534	23.07	-6.53932E-001	-2.23257E-004	0.00000E+000	-6.53400E-001	-8.20939E-004	8	..........a	0	-327.74
	11692	23.386	-6.69719E-001	-2.23867E-004	0.00000E+000	-6.69200E-001	-8.29272E-004	8	..........a	0	-327.74
	11850	23.702	-6.85515E-001	-2.24097E-004	0.00000E+000	-6.85000E-001	-8.70939E-004	8	..........a	0	-327.74
	12008	24.018	-7.01253E-001	-2.23694E-004	0.00000E+000	-7.00800E-001	-8.70939E-004	8	..........a	0	-327.74
	12166	24.334	-7.17111E-001	-2.25332E-004	0.00000E+000	-7.16600E-001	-8.62605E-004	8	..........a	0	-327.74
	12324	24.65	-7.32911E-001	-2.25684E-004	0.00000E+000	-7.32400E-001	-7.95939E-004	8	..........a	0	-327.74
	12482	24.966	-7.48719E-001	-2.25828E-004	0.00000E+000	-7.48200E-001	-8.20939E-004	8	..........a	0	-327.74
	12640	25.282	-7.64478E-001	-2.26739E-004	0.00000E+000	-7.64000E-001	-8.62605E-004	8	..........a	0	-327.74
	12798	25.598	-7.80290E-001	-2.26681E-004	0.00000E+000	-7.79800E-001	-8.79272E-004	8	..........a	0	-327.74
	12956	25.914	-7.96040E-001	-2.26414E-004	0.00000E+000	-7.95600E-001	-8.62605E-004	8	..........a	0	-327.74
	13114	26.23	-8.11836E-001	-2.26452E-004	0.00000E+000	-8.11400E-001	-8.20939E-004	8	..........a	0	-327.74
	13272	26.546	-8.27615E-001	-2.26973E-004	0.00000E+000	-8.27200E-001	-8.62605E-004	8	..........a	0	-327.74
	13430	26.862	-8.43390E-001	-2.26392E-004	0.00000E+000	-8.43000E-001	-8.70939E-004	8	..........a	0	-327.74
	13588	27.178	-8.59194E-001	-2.26891E-004	0.00000E+000	-8.58800E-001	-8.12605E-004	8	..........a	0	-327.74
	13746	27.494	-8.75057E-001	-2.26870E-004	0.00000E+000	-8.74600E-001	-8.45939E-004	8	..........a	0	-327.74
	13904	27.81	-8.90728E-001	-2.27261E-004	0.00000E+000	-8.90400E-001	-8.54272E-004	8	..........a	0	-327.74
	14062	28.126	-9.06632E-001	-2.27456E-004	0.00000E+000	-9.06200E-001	-8.37606E-004	8	..........a	0	-327.74
	14220	28.442	-9.22357E-001	-2.27684E-004	0.00000E+000	-9.22000E-001	-8.45939E-004	8	..........a	0	-327.74
	14378	28.758	-9.38157E-001	-2.27465E-004	0.00000E+000	-9.37800E-001	-8.37606E-004	8	..........a	0	-327.74
	14536	29.074	-9.53998E-001	-2.26262E-004	0.00000E+000	-9.53600E-001	-8.20939E-004	8	..........a	0	-327.74
	14694	29.39	-9.69769E-001	-2.27509E-004	0.00000E+000	-9.69400E-001	-8.37606E-004	8	..........a	0	-327.74
	14852	29.706	-9.85548E-001	-2.28773E-004	0.00000E+000	-9.85200E-001	-8.37606E-004	8	..........a	0	-327.74
	15000	30.002	-1.00030E+000	-2.29041E-004	0.00000E+000	-1.00000E+000	-8.45939E-004	8	..........a	0	-327.74