File: data/02-SI/Figures_S9_S11_RDE/15btmapaq-rde/1mkcl-15btmapaq-nitrogen-200mvpers.DTA
EXPLAIN
TAG	CV
TITLE	LABEL	Cyclic Voltammetry	Test &Identifier
DATE	LABEL	1/31/2023	Date
TIME	LABEL	18:17:47	Time
NOTES	NOTES	1	&Notes...

PSTAT	PSTAT	REF3000-21108	Potentiostat
VINIT	POTEN	5.00000E-001	F	Initial &E (V)
VLIMIT1	POTEN	-1.00000E+000	F	Scan Limit &1 (V)
VLIMIT2	POTEN	5.00000E-001	F	Scan Limit &2 (V)
VFINAL	POTEN	5.00000E-001	F	Final &E (V)
SCANRATE	QUANT	2.00000E+002	&Scan Rate (mV/s)
STEPSIZE	QUANT	1.00000E+000	St&ep Size (mV)
CYCLES	IQUANT	1	C&ycles (#)
IMODE	SELECTOR	1	I/E Range &Mode
IRANGE	QUANT	1.00000E+001	&Max Current (mA)
AREA	QUANT	1.00000E+000	Electrode &Area (cm^2)
ELECTRODETYPE	SELECTOR	0	Electrode Type
STRIPPING	TOGGLE	F	Used for Stripping
POLARITY	TOGGLE	F	Signal Polarity
CONDIT	TWOPARAM	F	1.50000E+001	0.00000E+000	Conditionin&g	Time(s)	E(V)
DELAY	TWOPARAM	F	5.00000E+000	0.00000E+000	Init. De&lay	Time(s)	Stab.(mV/s)
EQDELAY	QUANT	0.00000E+000	Equil. &Time (s)
IRCOMP	SELECTOR	0	IRCom&p
PFCOR	QUANT	5.00000E+001	PF Corr. (ohm)
SAMPLINGMODE	SELECTOR	1	Sampling &Mode
EOC	QUANT	0	Open Circuit (V)
PSTATMODEL	IQUANT	5	Pstat Model
PSTATSECTION	LABEL	REF3000-21108	Pstat Section
PSTATSERIALNO	LABEL	21108	Pstat Serial Number
CTRLMODE	IQUANT	1	Control Mode
ELECTROMETER	IQUANT	0	RE=0 or CS=1
IESTAB	IQUANT	2	I/E Stability
CASPEED	IQUANT	4	Control Amp Speed
CONVENTION	IQUANT	1	Current Convention
ICHRANGE	IQUANT	2	Ich Range
ICHRANGEMODE	TOGGLE	F	Ich Auto Range
ICHOFFSETENABLE	TOGGLE	F	Ich Offset Enable
ICHOFFSET	QUANT	0	Ich Offset (V)
ICHFILTER	IQUANT	2	Ich Filter
VCHRANGE	IQUANT	2	Vch Range
VCHRANGEMODE	TOGGLE	F	Vch Auto Range
VCHOFFSETENABLE	TOGGLE	F	Vch Offset Enable
VCHOFFSET	QUANT	0	Vch Offset (V)
VCHFILTER	IQUANT	2	Vch Filter
ACHRANGE	IQUANT	2	Ach Range
ACHOFFSETENABLE	TOGGLE	F	Ach Offset Enable
ACHOFFSET	QUANT	0	Ach Offset (V)
ACHFILTER	IQUANT	0	Ach Filter
IERANGELOWERLIMIT	IQUANT	2	I/E Range Lower Limit
IERANGEMODE	TOGGLE	F	I/E AutoRange
IERANGE	IQUANT	10	I/E Range
POSFEEDENABLE	TOGGLE	F	Positive Feedback IR Comp
POSFEEDRESISTANCE	QUANT	0	Positive Feedback Resistance (ohm)
ACHSELECT	IQUANT	0	Ach Select
SENSECABLEID	IQUANT	14	Sense Cable ID
PWRCABLEID	IQUANT	7	Power Cable ID
DCCALDATE	LABEL	11/9/2022	DC Calibration Date
ACCALDATE	LABEL	11/9/2022	AC Calibration Date
THERMOSELECT	IQUANT	1	Thermo Select
FRAMEWORKVERSION	LABEL	7.8.2	Framework Version
INSTRUMENTVERSION	LABEL	4.40	Instrument Version
COMPLIANCEVOLTAGE	IQUANT	0	Compliance Voltage
CURVE1	TABLE
	Pt	T	Vf	Im	Vu	Sig	Ach	IERange	Over	Temp
	#	s	V vs. Ref.	A	V	V	V	#	bits	deg C
	0	0.005	4.98828E-001	7.11216E-005	0.00000E+000	5.00000E-001	-7.02605E-004	10	..........a	-327.74
	31	0.16	4.67778E-001	3.01657E-005	0.00000E+000	4.69000E-001	-7.29272E-004	10	..........a	-327.74
	62	0.315	4.36776E-001	2.16102E-005	0.00000E+000	4.38000E-001	-7.82606E-004	10	..........a	-327.74
	93	0.47	4.05921E-001	1.69816E-005	0.00000E+000	4.07000E-001	-7.72606E-004	10	..........a	-327.74
	124	0.625	3.74874E-001	1.48260E-005	0.00000E+000	3.76000E-001	-7.45939E-004	10	..........a	-327.74
	155	0.78	3.43864E-001	1.28375E-005	0.00000E+000	3.45000E-001	-7.99272E-004	10	..........a	-327.74
	186	0.935	3.12904E-001	1.12000E-005	0.00000E+000	3.14000E-001	-7.52606E-004	10	..........a	-327.74
	217	1.09	2.81906E-001	9.91329E-006	0.00000E+000	2.83000E-001	-7.65939E-004	10	..........a	-327.74
	248	1.245	2.50909E-001	8.69347E-006	0.00000E+000	2.52000E-001	-7.35939E-004	10	..........a	-327.74
	279	1.4	2.20003E-001	7.42351E-006	0.00000E+000	2.21000E-001	-7.22606E-004	10	..........a	-327.74
	310	1.555	1.88921E-001	6.18698E-006	0.00000E+000	1.90000E-001	-7.72606E-004	10	..........a	-327.74
	341	1.71	1.57964E-001	4.59954E-006	0.00000E+000	1.59000E-001	-7.39272E-004	10	..........a	-327.74
	372	1.865	1.26991E-001	2.67790E-006	0.00000E+000	1.28000E-001	-7.79272E-004	10	..........a	-327.74
	403	2.02	9.60494E-002	1.90925E-006	0.00000E+000	9.70000E-002	-7.89272E-004	10	..........a	-327.74
	434	2.175	6.51127E-002	1.32440E-006	0.00000E+000	6.60000E-002	-7.59272E-004	10	..........a	-327.74
	465	2.33	3.40177E-002	5.89166E-007	0.00000E+000	3.50000E-002	-7.65939E-004	10	..........a	-327.74
	496	2.485	3.02773E-003	4.05357E-007	0.00000E+000	4.00001E-003	-7.79272E-004	10	..........a	-327.74
	527	2.64	-2.78989E-002	1.54709E-007	0.00000E+000	-2.70000E-002	-7.95939E-004	10	..........a	-327.74
	558	2.795	-5.89723E-002	2.04838E-007	0.00000E+000	-5.80000E-002	-7.62605E-004	10	..........a	-327.74
	589	2.95	-8.99506E-002	-1.29360E-007	0.00000E+000	-8.90000E-002	-7.49272E-004	10	..........a	-327.74
	620	3.105	-1.20952E-001	5.44490E-008	0.00000E+000	-1.20000E-001	-7.75939E-004	10	..........a	-327.74
	651	3.26	-1.51936E-001	-2.79749E-007	0.00000E+000	-1.51000E-001	-7.92605E-004	10	..........a	-327.74
	682	3.415	-1.82899E-001	-5.47107E-007	0.00000E+000	-1.82000E-001	-7.82606E-004	10	..........a	-327.74
	713	3.57	-2.13907E-001	-8.98015E-007	0.00000E+000	-2.13000E-001	-7.52606E-004	10	..........a	-327.74
	744	3.725	-2.44832E-001	-1.59983E-006	0.00000E+000	-2.44000E-001	-7.09272E-004	10	..........a	-327.74
	775	3.88	-2.75829E-001	-2.48546E-006	0.00000E+000	-2.75000E-001	-7.15939E-004	10	..........a	-327.74
	806	4.035	-3.06847E-001	-3.43792E-006	0.00000E+000	-3.06000E-001	-7.22606E-004	10	..........a	-327.74
	837	4.19	-3.37872E-001	-4.77471E-006	0.00000E+000	-3.37000E-001	-7.59272E-004	10	..........a	-327.74
	868	4.345	-3.68754E-001	-8.11669E-006	0.00000E+000	-3.68000E-001	-7.39272E-004	10	..........a	-327.74
	899	4.5	-3.99859E-001	-1.57698E-005	0.00000E+000	-3.99000E-001	-7.29272E-004	10	..........a	-327.74
	930	4.655	-4.30827E-001	-3.31481E-005	0.00000E+000	-4.30000E-001	-7.55939E-004	10	..........a	-327.74
	961	4.81	-4.61794E-001	-5.61577E-005	0.00000E+000	-4.61000E-001	-7.35939E-004	10	..........a	-327.74
	992	4.965	-4.92797E-001	-8.30940E-005	0.00000E+000	-4.92000E-001	-7.19272E-004	10	..........a	-327.74
	1023	5.12	-5.23734E-001	-1.27459E-004	0.00000E+000	-5.23000E-001	-7.45939E-004	10	..........a	-327.74
	1054	5.275	-5.54774E-001	-1.89536E-004	0.00000E+000	-5.54000E-001	-7.35939E-004	10	..........a	-327.74
	1085	5.43	-5.85844E-001	-2.20667E-004	0.00000E+000	-5.85000E-001	-7.89272E-004	10	..........a	-327.74
	1116	5.585	-6.16686E-001	-2.05912E-004	0.00000E+000	-6.16000E-001	-7.75939E-004	10	..........a	-327.74
	1147	5.74	-6.47771E-001	-1.78875E-004	0.00000E+000	-6.47000E-001	-7.12606E-004	10	..........a	-327.74
	1178	5.895	-6.78724E-001	-1.58623E-004	0.00000E+000	-6.78000E-001	-7.49272E-004	10	..........a	-327.74
	1209	6.05	-7.09681E-001	-1.43066E-004	0.00000E+000	-7.09000E-001	-7.42605E-004	10	..........a	-327.74
	1240	6.205	-7.40737E-001	-1.32355E-004	0.00000E+000	-7.40000E-001	-7.42605E-004	10	..........a	-327.74
	1271	6.36	-7.71709E-001	-1.23131E-004	0.00000E+000	-7.71000E-001	-7.25939E-004	10	..........a	-327.74
	1302	6.515	-8.02731E-001	-1.15762E-004	0.00000E+000	-8.02000E-001	-7.02605E-004	10	..........a	-327.74
	1333	6.67	-8.33592E-001	-1.10047E-004	0.00000E+000	-8.33000E-001	-7.45939E-004	10	..........a	-327.74
	1364	6.825	-8.64624E-001	-1.05168E-004	0.00000E+000	-8.64000E-001	-7.65939E-004	10	..........a	-327.74
	1395	6.98	-8.95589E-001	-1.00990E-004	0.00000E+000	-8.95000E-001	-7.32606E-004	10	..........a	-327.74
	1426	7.135	-9.26612E-001	-9.71136E-005	0.00000E+000	-9.26000E-001	-7.25939E-004	10	..........a	-327.74
	1457	7.29	-9.57486E-001	-9.42729E-005	0.00000E+000	-9.57000E-001	-7.59272E-004	10	..........a	-327.74
	1488	7.445	-9.88594E-001	-9.13320E-005	0.00000E+000	-9.88000E-001	-7.55939E-004	10	..........a	-327.74
	1519	7.6	-9.81597E-001	-8.40131E-005	0.00000E+000	-9.81000E-001	-7.29272E-004	10	..........a	-327.74
	1550	7.755	-9.50517E-001	-7.89834E-005	0.00000E+000	-9.50000E-001	-7.39272E-004	10	..........a	-327.74
	1581	7.91	-9.19621E-001	-7.53406E-005	0.00000E+000	-9.19000E-001	-7.72606E-004	10	..........a	-327.74
	1612	8.065	-8.88591E-001	-7.25668E-005	0.00000E+000	-8.88000E-001	-7.12606E-004	10	..........a	-327.74
	1643	8.22	-8.57599E-001	-7.00436E-005	0.00000E+000	-8.57000E-001	-7.05939E-004	10	..........a	-327.74
	1674	8.375	-8.26682E-001	-6.77376E-005	0.00000E+000	-8.26000E-001	-7.15939E-004	10	..........a	-327.74
	1705	8.53	-7.95681E-001	-6.53481E-005	0.00000E+000	-7.95000E-001	-7.39272E-004	10	..........a	-327.74
	1736	8.685	-7.64729E-001	-6.35434E-005	0.00000E+000	-7.64000E-001	-7.52606E-004	10	..........a	-327.74
	1767	8.84	-7.33697E-001	-6.11205E-005	0.00000E+000	-7.33000E-001	-7.22606E-004	10	..........a	-327.74
	1798	8.995	-7.02772E-001	-5.89148E-005	0.00000E+000	-7.02000E-001	-7.45939E-004	10	..........a	-327.74
	1829	9.15	-6.71816E-001	-5.56229E-005	0.00000E+000	-6.71000E-001	-7.55939E-004	10	..........a	-327.74
	1860	9.305	-6.40704E-001	-5.10611E-005	0.00000E+000	-6.40000E-001	-7.55939E-004	10	..........a	-327.74
	1891	9.46	-6.09794E-001	-4.16368E-005	0.00000E+000	-6.09000E-001	-7.45939E-004	10	..........a	-327.74
	1922	9.615	-5.78764E-001	-1.97802E-005	0.00000E+000	-5.78000E-001	-7.25939E-004	10	..........a	-327.74
	1953	9.77	-5.47796E-001	2.06243E-005	0.00000E+000	-5.47000E-001	-7.62605E-004	10	..........a	-327.74
	1984	9.925	-5.16749E-001	6.64429E-005	0.00000E+000	-5.16000E-001	-7.55939E-004	10	..........a	-327.74
	2015	10.08	-4.85879E-001	1.01467E-004	0.00000E+000	-4.85000E-001	-7.69272E-004	10	..........a	-327.74
	2046	10.235	-4.54821E-001	1.17876E-004	0.00000E+000	-4.54000E-001	-7.45939E-004	10	..........a	-327.74
	2077	10.39	-4.23852E-001	1.13498E-004	0.00000E+000	-4.23000E-001	-7.42605E-004	10	..........a	-327.74
	2108	10.545	-3.92844E-001	1.01567E-004	0.00000E+000	-3.92000E-001	-7.69272E-004	10	..........a	-327.74
	2139	10.7	-3.61834E-001	8.99704E-005	0.00000E+000	-3.61000E-001	-7.49272E-004	10	..........a	-327.74
	2170	10.855	-3.30934E-001	8.14484E-005	0.00000E+000	-3.30000E-001	-7.92605E-004	10	..........a	-327.74
	2201	11.01	-2.99857E-001	7.48145E-005	0.00000E+000	-2.99000E-001	-7.15939E-004	10	..........a	-327.74
	2232	11.165	-2.68892E-001	6.98851E-005	0.00000E+000	-2.68000E-001	-7.52606E-004	10	..........a	-327.74
	2263	11.32	-2.37869E-001	6.49056E-005	0.00000E+000	-2.37000E-001	-7.55939E-004	10	..........a	-327.74
	2294	11.475	-2.06896E-001	6.00263E-005	0.00000E+000	-2.06000E-001	-7.99272E-004	10	..........a	-327.74
	2325	11.63	-1.75969E-001	5.55313E-005	0.00000E+000	-1.75000E-001	-7.25939E-004	10	..........a	-327.74
	2356	11.785	-1.44939E-001	5.17382E-005	0.00000E+000	-1.44000E-001	-7.69272E-004	10	..........a	-327.74
	2387	11.94	-1.13952E-001	4.82458E-005	0.00000E+000	-1.13000E-001	-7.62605E-004	10	..........a	-327.74
	2418	12.095	-8.29756E-002	4.52213E-005	0.00000E+000	-8.20000E-002	-7.49272E-004	10	..........a	-327.74
	2449	12.25	-5.19089E-002	4.23973E-005	0.00000E+000	-5.10000E-002	-7.72606E-004	10	..........a	-327.74
	2480	12.405	-2.09973E-002	4.08266E-005	0.00000E+000	-2.00000E-002	-7.49272E-004	10	..........a	-327.74
	2511	12.56	1.00277E-002	3.89551E-005	0.00000E+000	1.10000E-002	-7.59272E-004	10	..........a	-327.74
	2542	12.715	4.09861E-002	3.80528E-005	0.00000E+000	4.20000E-002	-7.95939E-004	10	..........a	-327.74
	2573	12.87	7.19744E-002	3.69666E-005	0.00000E+000	7.30000E-002	-7.95939E-004	10	..........a	-327.74
	2604	13.025	1.02889E-001	3.67494E-005	0.00000E+000	1.04000E-001	-7.35939E-004	10	..........a	-327.74
	2635	13.18	1.33991E-001	3.84538E-005	0.00000E+000	1.35000E-001	-7.45939E-004	10	..........a	-327.74
	2666	13.335	1.64948E-001	4.04423E-005	0.00000E+000	1.66000E-001	-7.29272E-004	10	..........a	-327.74
	2697	13.49	1.96031E-001	4.09603E-005	0.00000E+000	1.97000E-001	-7.12606E-004	10	..........a	-327.74
	2728	13.645	2.26953E-001	4.02250E-005	0.00000E+000	2.28000E-001	-7.55939E-004	10	..........a	-327.74
	2759	13.8	2.57884E-001	3.82867E-005	0.00000E+000	2.59000E-001	-7.62605E-004	10	..........a	-327.74
	2790	13.955	2.88918E-001	3.66491E-005	0.00000E+000	2.90000E-001	-7.62605E-004	10	..........a	-327.74
	2821	14.11	3.19906E-001	3.44267E-005	0.00000E+000	3.21000E-001	-7.79272E-004	10	..........a	-327.74
	2852	14.265	3.50934E-001	3.28560E-005	0.00000E+000	3.52000E-001	-7.72606E-004	10	..........a	-327.74
	2883	14.42	3.81906E-001	3.21040E-005	0.00000E+000	3.83000E-001	-7.39272E-004	10	..........a	-327.74
	2914	14.575	4.12826E-001	3.04498E-005	0.00000E+000	4.14000E-001	-7.75939E-004	10	..........a	-327.74
	2945	14.73	4.43779E-001	2.93970E-005	0.00000E+000	4.45000E-001	-7.39272E-004	10	..........a	-327.74
	2976	14.885	4.74833E-001	2.82775E-005	0.00000E+000	4.76000E-001	-7.55939E-004	10	..........a	-327.74
	3000	15.005	4.98829E-001	2.73918E-005	0.00000E+000	5.00000E-001	-7.59272E-004	10	..........a	-327.74
CURVE2	TABLE
	Pt	T	Vf	Im	Vu	Sig	Ach	IERange	Over	Temp
	#	s	V vs. Ref.	A	V	V	V	#	bits	deg C
	3001	15.01	4.98799E-001	2.69073E-005	0.00000E+000	5.00000E-001	-7.45939E-004	10	..........a	-327.74