File: data/02-SI/Figures_S9_S11_RDE/15btmapaq-rde/1mkcl-15btmapaq-nitrogen-50mvpers.DTA
EXPLAIN
TAG	CV
TITLE	LABEL	Cyclic Voltammetry	Test &Identifier
DATE	LABEL	1/31/2023	Date
TIME	LABEL	18:15:53	Time
NOTES	NOTES	1	&Notes...

PSTAT	PSTAT	REF3000-21108	Potentiostat
VINIT	POTEN	5.00000E-001	F	Initial &E (V)
VLIMIT1	POTEN	-1.00000E+000	F	Scan Limit &1 (V)
VLIMIT2	POTEN	5.00000E-001	F	Scan Limit &2 (V)
VFINAL	POTEN	5.00000E-001	F	Final &E (V)
SCANRATE	QUANT	4.99999E+001	&Scan Rate (mV/s)
STEPSIZE	QUANT	1.00000E+000	St&ep Size (mV)
CYCLES	IQUANT	1	C&ycles (#)
IMODE	SELECTOR	1	I/E Range &Mode
IRANGE	QUANT	1.00000E+001	&Max Current (mA)
AREA	QUANT	1.00000E+000	Electrode &Area (cm^2)
ELECTRODETYPE	SELECTOR	0	Electrode Type
STRIPPING	TOGGLE	F	Used for Stripping
POLARITY	TOGGLE	F	Signal Polarity
CONDIT	TWOPARAM	F	1.50000E+001	0.00000E+000	Conditionin&g	Time(s)	E(V)
DELAY	TWOPARAM	F	5.00000E+000	0.00000E+000	Init. De&lay	Time(s)	Stab.(mV/s)
EQDELAY	QUANT	0.00000E+000	Equil. &Time (s)
IRCOMP	SELECTOR	0	IRCom&p
PFCOR	QUANT	5.00000E+001	PF Corr. (ohm)
SAMPLINGMODE	SELECTOR	1	Sampling &Mode
EOC	QUANT	0	Open Circuit (V)
PSTATMODEL	IQUANT	5	Pstat Model
PSTATSECTION	LABEL	REF3000-21108	Pstat Section
PSTATSERIALNO	LABEL	21108	Pstat Serial Number
CTRLMODE	IQUANT	1	Control Mode
ELECTROMETER	IQUANT	0	RE=0 or CS=1
IESTAB	IQUANT	2	I/E Stability
CASPEED	IQUANT	4	Control Amp Speed
CONVENTION	IQUANT	1	Current Convention
ICHRANGE	IQUANT	2	Ich Range
ICHRANGEMODE	TOGGLE	F	Ich Auto Range
ICHOFFSETENABLE	TOGGLE	F	Ich Offset Enable
ICHOFFSET	QUANT	0	Ich Offset (V)
ICHFILTER	IQUANT	2	Ich Filter
VCHRANGE	IQUANT	2	Vch Range
VCHRANGEMODE	TOGGLE	F	Vch Auto Range
VCHOFFSETENABLE	TOGGLE	F	Vch Offset Enable
VCHOFFSET	QUANT	0	Vch Offset (V)
VCHFILTER	IQUANT	2	Vch Filter
ACHRANGE	IQUANT	2	Ach Range
ACHOFFSETENABLE	TOGGLE	F	Ach Offset Enable
ACHOFFSET	QUANT	0	Ach Offset (V)
ACHFILTER	IQUANT	0	Ach Filter
IERANGELOWERLIMIT	IQUANT	2	I/E Range Lower Limit
IERANGEMODE	TOGGLE	F	I/E AutoRange
IERANGE	IQUANT	10	I/E Range
POSFEEDENABLE	TOGGLE	F	Positive Feedback IR Comp
POSFEEDRESISTANCE	QUANT	0	Positive Feedback Resistance (ohm)
ACHSELECT	IQUANT	0	Ach Select
SENSECABLEID	IQUANT	14	Sense Cable ID
PWRCABLEID	IQUANT	7	Power Cable ID
DCCALDATE	LABEL	11/9/2022	DC Calibration Date
ACCALDATE	LABEL	11/9/2022	AC Calibration Date
THERMOSELECT	IQUANT	1	Thermo Select
FRAMEWORKVERSION	LABEL	7.8.2	Framework Version
INSTRUMENTVERSION	LABEL	4.40	Instrument Version
COMPLIANCEVOLTAGE	IQUANT	0	Compliance Voltage
CURVE1	TABLE
	Pt	T	Vf	Im	Vu	Sig	Ach	IERange	Over	Temp
	#	s	V vs. Ref.	A	V	V	V	#	bits	deg C
	0	0.02	4.98828E-001	4.47284E-005	0.00000E+000	5.00000E-001	-8.50939E-004	10	..........a	-327.74
	31	0.64	4.67767E-001	1.21441E-005	0.00000E+000	4.69000E-001	-8.70106E-004	10	..........a	-327.74
	62	1.26	4.36819E-001	8.55561E-006	0.00000E+000	4.38000E-001	-8.55939E-004	10	..........a	-327.74
	93	1.88	4.05896E-001	6.96399E-006	0.00000E+000	4.07000E-001	-8.61772E-004	10	..........a	-327.74
	124	2.5	3.74832E-001	5.48517E-006	0.00000E+000	3.76000E-001	-8.37606E-004	10	..........a	-327.74
	155	3.12	3.43837E-001	4.90868E-006	0.00000E+000	3.45000E-001	-8.54272E-004	10	..........a	-327.74
	186	3.74	3.12901E-001	4.43244E-006	0.00000E+000	3.14000E-001	-8.55105E-004	10	..........a	-327.74
	217	4.36	2.81881E-001	3.62619E-006	0.00000E+000	2.83000E-001	-8.65939E-004	10	..........a	-327.74
	248	4.98	2.50901E-001	3.35465E-006	0.00000E+000	2.52000E-001	-8.68439E-004	10	..........a	-327.74
	279	5.6	2.19847E-001	3.06641E-006	0.00000E+000	2.21000E-001	-8.84272E-004	10	..........a	-327.74
	310	6.22	1.88938E-001	2.79487E-006	0.00000E+000	1.90000E-001	-8.71772E-004	10	..........a	-327.74
	341	6.84	1.57993E-001	2.35624E-006	0.00000E+000	1.59000E-001	-8.58439E-004	10	..........a	-327.74
	372	7.46	1.27026E-001	1.91343E-006	0.00000E+000	1.28000E-001	-8.60939E-004	10	..........a	-327.74
	403	8.08	9.60311E-002	1.62518E-006	0.00000E+000	9.70000E-002	-8.43439E-004	10	..........a	-327.74
	434	8.7	6.51619E-002	1.48315E-006	0.00000E+000	6.60000E-002	-8.50939E-004	10	..........a	-327.74
	465	9.32	3.40140E-002	1.46226E-006	0.00000E+000	3.50000E-002	-8.47606E-004	10	..........a	-327.74
	496	9.94	3.05648E-003	1.11971E-006	0.00000E+000	4.00001E-003	-8.43439E-004	10	..........a	-327.74
	527	10.56	-2.79319E-002	6.14231E-007	0.00000E+000	-2.70000E-002	-8.58439E-004	10	..........a	-327.74
	558	11.18	-5.89314E-002	5.22326E-007	0.00000E+000	-5.80000E-002	-8.81772E-004	10	..........a	-327.74
	589	11.8	-8.99448E-002	5.97521E-007	0.00000E+000	-8.90000E-002	-8.64272E-004	10	..........a	-327.74
	620	12.42	-1.20916E-001	4.05357E-007	0.00000E+000	-1.20000E-001	-8.71772E-004	10	..........a	-327.74
	651	13.04	-1.51937E-001	7.95139E-008	0.00000E+000	-1.51000E-001	-8.93439E-004	10	..........a	-327.74
	682	13.66	-1.82879E-001	-4.99878E-008	0.00000E+000	-1.82000E-001	-8.95939E-004	10	..........a	-327.74
	713	14.28	-2.13898E-001	-5.97237E-007	0.00000E+000	-2.13000E-001	-9.00939E-004	10	..........a	-327.74
	744	14.9	-2.44884E-001	-7.68514E-007	0.00000E+000	-2.44000E-001	-8.98439E-004	10	..........a	-327.74
	775	15.52	-2.75852E-001	-1.04423E-006	0.00000E+000	-2.75000E-001	-8.63439E-004	10	..........a	-327.74
	806	16.14	-3.06867E-001	-1.37425E-006	0.00000E+000	-3.06000E-001	-8.56772E-004	10	..........a	-327.74
	837	16.76	-3.37884E-001	-1.70845E-006	0.00000E+000	-3.37000E-001	-8.45939E-004	10	..........a	-327.74
	868	17.38	-3.68983E-001	-2.78206E-006	0.00000E+000	-3.68000E-001	-8.20939E-004	10	..........a	-327.74
	899	18	-3.99871E-001	-7.16005E-006	0.00000E+000	-3.99000E-001	-8.31772E-004	10	..........a	-327.74
	930	18.62	-4.30807E-001	-1.73030E-005	0.00000E+000	-4.30000E-001	-8.29272E-004	10	..........a	-327.74
	961	19.24	-4.61791E-001	-3.16693E-005	0.00000E+000	-4.61000E-001	-8.30939E-004	10	..........a	-327.74
	992	19.86	-4.92806E-001	-5.14998E-005	0.00000E+000	-4.92000E-001	-8.49272E-004	10	..........a	-327.74
	1023	20.48	-5.23741E-001	-8.19369E-005	0.00000E+000	-5.23000E-001	-8.30939E-004	10	..........a	-327.74
	1054	21.1	-5.54766E-001	-1.14475E-004	0.00000E+000	-5.54000E-001	-8.22606E-004	10	..........a	-327.74
	1085	21.72	-5.85817E-001	-1.22116E-004	0.00000E+000	-5.85000E-001	-8.24272E-004	10	..........a	-327.74
	1116	22.34	-6.16731E-001	-1.06901E-004	0.00000E+000	-6.16000E-001	-8.32606E-004	10	..........a	-327.74
	1147	22.96	-6.47769E-001	-9.20004E-005	0.00000E+000	-6.47000E-001	-8.42605E-004	10	..........a	-327.74
	1178	23.58	-6.78733E-001	-8.14147E-005	0.00000E+000	-6.78000E-001	-8.40106E-004	10	..........a	-327.74
	1209	24.2	-7.09736E-001	-7.40205E-005	0.00000E+000	-7.09000E-001	-8.34272E-004	10	..........a	-327.74
	1240	24.82	-7.40744E-001	-6.88906E-005	0.00000E+000	-7.40000E-001	-8.49272E-004	10	..........a	-327.74
	1271	25.44	-7.71680E-001	-6.45920E-005	0.00000E+000	-7.71000E-001	-8.39272E-004	10	..........a	-327.74
	1302	26.06	-8.02708E-001	-6.10244E-005	0.00000E+000	-8.02000E-001	-8.50105E-004	10	..........a	-327.74
	1333	26.68	-8.33609E-001	-5.82422E-005	0.00000E+000	-8.33000E-001	-8.22606E-004	10	..........a	-327.74
	1364	27.3	-8.64621E-001	-5.57984E-005	0.00000E+000	-8.64000E-001	-8.30106E-004	10	..........a	-327.74
	1395	27.92	-8.95595E-001	-5.41483E-005	0.00000E+000	-8.95000E-001	-8.18439E-004	10	..........a	-327.74
	1426	28.54	-9.26682E-001	-5.21055E-005	0.00000E+000	-9.26000E-001	-8.38439E-004	10	..........a	-327.74
	1457	29.16	-9.57622E-001	-5.05431E-005	0.00000E+000	-9.57000E-001	-8.24272E-004	10	..........a	-327.74
	1488	29.78	-9.88580E-001	-4.90225E-005	0.00000E+000	-9.88000E-001	-8.55105E-004	10	..........a	-327.74
	1519	30.4	-9.81550E-001	-4.59772E-005	0.00000E+000	-9.81000E-001	-8.27606E-004	10	..........a	-327.74
	1550	31.02	-9.50662E-001	-4.38090E-005	0.00000E+000	-9.50000E-001	-8.40106E-004	10	..........a	-327.74
	1581	31.64	-9.19613E-001	-4.22300E-005	0.00000E+000	-9.19000E-001	-8.28439E-004	10	..........a	-327.74
	1612	32.26	-8.88602E-001	-4.05548E-005	0.00000E+000	-8.88000E-001	-8.39272E-004	10	..........a	-327.74
	1643	32.88	-8.57591E-001	-3.92765E-005	0.00000E+000	-8.57000E-001	-8.20939E-004	10	..........a	-327.74
	1674	33.5	-8.26553E-001	-3.81486E-005	0.00000E+000	-8.26000E-001	-8.26772E-004	10	..........a	-327.74
	1705	34.12	-7.95662E-001	-3.73298E-005	0.00000E+000	-7.95000E-001	-8.20106E-004	10	..........a	-327.74
	1736	34.74	-7.64727E-001	-3.63439E-005	0.00000E+000	-7.64000E-001	-8.56772E-004	10	..........a	-327.74
	1767	35.36	-7.33714E-001	-3.53371E-005	0.00000E+000	-7.33000E-001	-8.20106E-004	10	..........a	-327.74
	1798	35.98	-7.02732E-001	-3.44264E-005	0.00000E+000	-7.02000E-001	-8.28439E-004	10	..........a	-327.74
	1829	36.6	-6.71743E-001	-3.28808E-005	0.00000E+000	-6.71000E-001	-8.58439E-004	10	..........a	-327.74
	1860	37.22	-6.40691E-001	-3.09424E-005	0.00000E+000	-6.40000E-001	-8.38439E-004	10	..........a	-327.74
	1891	37.84	-6.09813E-001	-2.63138E-005	0.00000E+000	-6.09000E-001	-8.23439E-004	10	..........a	-327.74
	1922	38.46	-5.78771E-001	-1.38189E-005	0.00000E+000	-5.78000E-001	-8.30106E-004	10	..........a	-327.74
	1953	39.08	-5.47726E-001	1.48761E-005	0.00000E+000	-5.47000E-001	-8.72606E-004	10	..........a	-327.74
	1984	39.7	-5.16794E-001	4.57811E-005	0.00000E+000	-5.16000E-001	-8.58439E-004	10	..........a	-327.74
	2015	40.32	-4.85809E-001	6.36064E-005	0.00000E+000	-4.85000E-001	-8.65106E-004	10	..........a	-327.74
	2046	40.94	-4.54818E-001	6.77755E-005	0.00000E+000	-4.54000E-001	-8.61772E-004	10	..........a	-327.74
	2077	41.56	-4.23853E-001	6.19730E-005	0.00000E+000	-4.23000E-001	-8.47606E-004	10	..........a	-327.74
	2108	42.18	-3.92915E-001	5.27157E-005	0.00000E+000	-3.92000E-001	-8.35939E-004	10	..........a	-327.74
	2139	42.8	-3.61914E-001	4.54260E-005	0.00000E+000	-3.61000E-001	-8.51772E-004	10	..........a	-327.74
	2170	43.42	-3.30888E-001	4.02835E-005	0.00000E+000	-3.30000E-001	-8.59272E-004	10	..........a	-327.74
	2201	44.04	-2.99871E-001	3.64194E-005	0.00000E+000	-2.99000E-001	-8.46772E-004	10	..........a	-327.74
	2232	44.66	-2.68835E-001	3.32695E-005	0.00000E+000	-2.68000E-001	-8.53439E-004	10	..........a	-327.74
	2263	45.28	-2.37899E-001	3.03829E-005	0.00000E+000	-2.37000E-001	-8.65939E-004	10	..........a	-327.74
	2294	45.9	-2.06875E-001	2.77302E-005	0.00000E+000	-2.06000E-001	-9.11772E-004	10	..........a	-327.74
	2325	46.52	-1.75949E-001	2.53073E-005	0.00000E+000	-1.75000E-001	-8.47606E-004	10	..........a	-327.74
	2356	47.14	-1.44948E-001	2.34358E-005	0.00000E+000	-1.44000E-001	-8.59272E-004	10	..........a	-327.74
	2387	47.76	-1.13949E-001	2.19319E-005	0.00000E+000	-1.13000E-001	-8.53439E-004	10	..........a	-327.74
	2418	48.38	-8.29810E-002	2.03194E-005	0.00000E+000	-8.20000E-002	-8.60106E-004	10	..........a	-327.74
	2449	49	-5.19373E-002	1.87570E-005	0.00000E+000	-5.10000E-002	-8.67606E-004	10	..........a	-327.74
	2480	49.62	-2.09756E-002	1.74160E-005	0.00000E+000	-2.00000E-002	-8.41772E-004	10	..........a	-327.74
	2511	50.24	1.00306E-002	1.67978E-005	0.00000E+000	1.10000E-002	-8.43439E-004	10	..........a	-327.74
	2542	50.86	4.10702E-002	1.58871E-005	0.00000E+000	4.20000E-002	-8.78439E-004	10	..........a	-327.74
	2573	51.48	7.20148E-002	1.52981E-005	0.00000E+000	7.30000E-002	-9.04272E-004	10	..........a	-327.74
	2604	52.1	1.02964E-001	1.50558E-005	0.00000E+000	1.04000E-001	-9.00105E-004	10	..........a	-327.74
	2635	52.72	1.33977E-001	1.51226E-005	0.00000E+000	1.35000E-001	-8.98439E-004	10	..........a	-327.74
	2666	53.34	1.64954E-001	1.49096E-005	0.00000E+000	1.66000E-001	-8.96772E-004	10	..........a	-327.74
	2697	53.96	1.95932E-001	1.44083E-005	0.00000E+000	1.97000E-001	-8.84272E-004	10	..........a	-327.74
	2728	54.58	2.26880E-001	1.35853E-005	0.00000E+000	2.28000E-001	-8.65106E-004	10	..........a	-327.74
	2759	55.2	2.57876E-001	1.30297E-005	0.00000E+000	2.59000E-001	-8.66772E-004	10	..........a	-327.74
	2790	55.82	2.88890E-001	1.22193E-005	0.00000E+000	2.90000E-001	-8.64272E-004	10	..........a	-327.74
	2821	56.44	3.19867E-001	1.18851E-005	0.00000E+000	3.21000E-001	-8.87605E-004	10	..........a	-327.74
	2852	57.06	3.50885E-001	1.10830E-005	0.00000E+000	3.52000E-001	-8.90939E-004	10	..........a	-327.74
	2883	57.68	3.81919E-001	1.06109E-005	0.00000E+000	3.83000E-001	-8.78439E-004	10	..........a	-327.74
	2914	58.3	4.12859E-001	1.02684E-005	0.00000E+000	4.14000E-001	-8.65106E-004	10	..........a	-327.74
	2945	58.92	4.43843E-001	9.95924E-006	0.00000E+000	4.45000E-001	-8.59272E-004	10	..........a	-327.74
	2976	59.54	4.74886E-001	9.44959E-006	0.00000E+000	4.76000E-001	-8.40939E-004	10	..........a	-327.74
	3000	60.02	4.98836E-001	9.37022E-006	0.00000E+000	5.00000E-001	-8.18439E-004	10	..........a	-327.74
CURVE2	TABLE
	Pt	T	Vf	Im	Vu	Sig	Ach	IERange	Over	Temp
	#	s	V vs. Ref.	A	V	V	V	#	bits	deg C
	3001	60.04	4.98841E-001	9.28667E-006	0.00000E+000	5.00000E-001	-8.37606E-004	10	..........a	-327.74