File: data/02-SI/Figures_S9_S11_RDE/15btmapaq-rde/1mkcl-15btmapaq-nitrogen-100mvpers.DTA
EXPLAIN
TAG	CV
TITLE	LABEL	Cyclic Voltammetry	Test &Identifier
DATE	LABEL	1/31/2023	Date
TIME	LABEL	18:17:09	Time
NOTES	NOTES	1	&Notes...

PSTAT	PSTAT	REF3000-21108	Potentiostat
VINIT	POTEN	5.00000E-001	F	Initial &E (V)
VLIMIT1	POTEN	-1.00000E+000	F	Scan Limit &1 (V)
VLIMIT2	POTEN	5.00000E-001	F	Scan Limit &2 (V)
VFINAL	POTEN	5.00000E-001	F	Final &E (V)
SCANRATE	QUANT	9.99998E+001	&Scan Rate (mV/s)
STEPSIZE	QUANT	1.00000E+000	St&ep Size (mV)
CYCLES	IQUANT	1	C&ycles (#)
IMODE	SELECTOR	1	I/E Range &Mode
IRANGE	QUANT	1.00000E+001	&Max Current (mA)
AREA	QUANT	1.00000E+000	Electrode &Area (cm^2)
ELECTRODETYPE	SELECTOR	0	Electrode Type
STRIPPING	TOGGLE	F	Used for Stripping
POLARITY	TOGGLE	F	Signal Polarity
CONDIT	TWOPARAM	F	1.50000E+001	0.00000E+000	Conditionin&g	Time(s)	E(V)
DELAY	TWOPARAM	F	5.00000E+000	0.00000E+000	Init. De&lay	Time(s)	Stab.(mV/s)
EQDELAY	QUANT	0.00000E+000	Equil. &Time (s)
IRCOMP	SELECTOR	0	IRCom&p
PFCOR	QUANT	5.00000E+001	PF Corr. (ohm)
SAMPLINGMODE	SELECTOR	1	Sampling &Mode
EOC	QUANT	0	Open Circuit (V)
PSTATMODEL	IQUANT	5	Pstat Model
PSTATSECTION	LABEL	REF3000-21108	Pstat Section
PSTATSERIALNO	LABEL	21108	Pstat Serial Number
CTRLMODE	IQUANT	1	Control Mode
ELECTROMETER	IQUANT	0	RE=0 or CS=1
IESTAB	IQUANT	2	I/E Stability
CASPEED	IQUANT	4	Control Amp Speed
CONVENTION	IQUANT	1	Current Convention
ICHRANGE	IQUANT	2	Ich Range
ICHRANGEMODE	TOGGLE	F	Ich Auto Range
ICHOFFSETENABLE	TOGGLE	F	Ich Offset Enable
ICHOFFSET	QUANT	0	Ich Offset (V)
ICHFILTER	IQUANT	2	Ich Filter
VCHRANGE	IQUANT	2	Vch Range
VCHRANGEMODE	TOGGLE	F	Vch Auto Range
VCHOFFSETENABLE	TOGGLE	F	Vch Offset Enable
VCHOFFSET	QUANT	0	Vch Offset (V)
VCHFILTER	IQUANT	2	Vch Filter
ACHRANGE	IQUANT	2	Ach Range
ACHOFFSETENABLE	TOGGLE	F	Ach Offset Enable
ACHOFFSET	QUANT	0	Ach Offset (V)
ACHFILTER	IQUANT	0	Ach Filter
IERANGELOWERLIMIT	IQUANT	2	I/E Range Lower Limit
IERANGEMODE	TOGGLE	F	I/E AutoRange
IERANGE	IQUANT	10	I/E Range
POSFEEDENABLE	TOGGLE	F	Positive Feedback IR Comp
POSFEEDRESISTANCE	QUANT	0	Positive Feedback Resistance (ohm)
ACHSELECT	IQUANT	0	Ach Select
SENSECABLEID	IQUANT	14	Sense Cable ID
PWRCABLEID	IQUANT	7	Power Cable ID
DCCALDATE	LABEL	11/9/2022	DC Calibration Date
ACCALDATE	LABEL	11/9/2022	AC Calibration Date
THERMOSELECT	IQUANT	1	Thermo Select
FRAMEWORKVERSION	LABEL	7.8.2	Framework Version
INSTRUMENTVERSION	LABEL	4.40	Instrument Version
COMPLIANCEVOLTAGE	IQUANT	0	Compliance Voltage
CURVE1	TABLE
	Pt	T	Vf	Im	Vu	Sig	Ach	IERange	Over	Temp
	#	s	V vs. Ref.	A	V	V	V	#	bits	deg C
	0	0.01	4.98780E-001	5.65339E-005	0.00000E+000	5.00000E-001	-8.04272E-004	10	..........a	-327.74
	31	0.32	4.67792E-001	1.69899E-005	0.00000E+000	4.69000E-001	-9.32606E-004	10	..........a	-327.74
	62	0.63	4.36740E-001	1.18600E-005	0.00000E+000	4.38000E-001	-8.39272E-004	10	..........a	-327.74
	93	0.94	4.05822E-001	9.37857E-006	0.00000E+000	4.07000E-001	-8.97606E-004	10	..........a	-327.74
	124	1.25	3.74743E-001	8.02507E-006	0.00000E+000	3.76000E-001	-8.50939E-004	10	..........a	-327.74
	155	1.56	3.43842E-001	6.88044E-006	0.00000E+000	3.45000E-001	-8.45939E-004	10	..........a	-327.74
	186	1.87	3.12853E-001	6.13685E-006	0.00000E+000	3.14000E-001	-8.54272E-004	10	..........a	-327.74
	217	2.18	2.81821E-001	5.40997E-006	0.00000E+000	2.83000E-001	-9.12605E-004	10	..........a	-327.74
	248	2.49	2.50867E-001	4.87525E-006	0.00000E+000	2.52000E-001	-8.84272E-004	10	..........a	-327.74
	279	2.8	2.19863E-001	4.13166E-006	0.00000E+000	2.21000E-001	-8.40939E-004	10	..........a	-327.74
	310	3.11	1.88932E-001	3.71392E-006	0.00000E+000	1.90000E-001	-8.14272E-004	10	..........a	-327.74
	341	3.42	1.57913E-001	3.26275E-006	0.00000E+000	1.59000E-001	-8.72606E-004	10	..........a	-327.74
	372	3.73	1.26971E-001	2.48574E-006	0.00000E+000	1.28000E-001	-8.74272E-004	10	..........a	-327.74
	403	4.04	9.59461E-002	1.87583E-006	0.00000E+000	9.70000E-002	-8.07606E-004	10	..........a	-327.74
	434	4.35	6.50211E-002	1.72544E-006	0.00000E+000	6.60000E-002	-8.55939E-004	10	..........a	-327.74
	465	4.66	3.40202E-002	1.19072E-006	0.00000E+000	3.50000E-002	-8.07606E-004	10	..........a	-327.74
	496	4.97	2.96106E-003	1.35782E-006	0.00000E+000	4.00001E-003	-9.04272E-004	10	..........a	-327.74
	527	5.28	-2.79623E-002	8.39814E-007	0.00000E+000	-2.70000E-002	-8.59272E-004	10	..........a	-327.74
	558	5.59	-5.89981E-002	9.90203E-007	0.00000E+000	-5.80000E-002	-8.87605E-004	10	..........a	-327.74
	589	5.9	-8.99464E-002	4.38777E-007	0.00000E+000	-8.90000E-002	-7.79272E-004	10	..........a	-327.74
	620	6.21	-1.20969E-001	2.54968E-007	0.00000E+000	-1.20000E-001	-7.97606E-004	10	..........a	-327.74
	651	6.52	-1.51980E-001	1.46353E-007	0.00000E+000	-1.51000E-001	-8.37606E-004	10	..........a	-327.74
	682	6.83	-1.82926E-001	-5.30397E-007	0.00000E+000	-1.82000E-001	-8.74272E-004	10	..........a	-327.74
	713	7.14	-2.13939E-001	-6.97496E-007	0.00000E+000	-2.13000E-001	-8.94272E-004	10	..........a	-327.74
	744	7.45	-2.44911E-001	-1.00663E-006	0.00000E+000	-2.44000E-001	-7.84272E-004	10	..........a	-327.74
	775	7.76	-2.75883E-001	-1.43273E-006	0.00000E+000	-2.75000E-001	-7.97606E-004	10	..........a	-327.74
	806	8.07	-3.06903E-001	-2.10948E-006	0.00000E+000	-3.06000E-001	-7.85939E-004	10	..........a	-327.74
	837	8.38	-3.37931E-001	-2.56901E-006	0.00000E+000	-3.37000E-001	-8.60939E-004	10	..........a	-327.74
	868	8.69	-3.68892E-001	-5.36791E-006	0.00000E+000	-3.68000E-001	-8.55939E-004	10	..........a	-327.74
	899	9	-3.99889E-001	-1.17929E-005	0.00000E+000	-3.99000E-001	-8.39272E-004	10	..........a	-327.74
	930	9.31	-4.30879E-001	-2.51691E-005	0.00000E+000	-4.30000E-001	-8.39272E-004	10	..........a	-327.74
	961	9.62	-4.61853E-001	-4.31741E-005	0.00000E+000	-4.61000E-001	-7.89272E-004	10	..........a	-327.74
	992	9.93	-4.92856E-001	-6.53982E-005	0.00000E+000	-4.92000E-001	-8.64272E-004	10	..........a	-327.74
	1023	10.24	-5.23929E-001	-1.02177E-004	0.00000E+000	-5.23000E-001	-8.90939E-004	10	..........a	-327.74
	1054	10.55	-5.54826E-001	-1.47402E-004	0.00000E+000	-5.54000E-001	-8.97606E-004	10	..........a	-327.74
	1085	10.86	-5.85846E-001	-1.64062E-004	0.00000E+000	-5.85000E-001	-8.52606E-004	10	..........a	-327.74
	1116	11.17	-6.16772E-001	-1.48004E-004	0.00000E+000	-6.16000E-001	-8.60939E-004	10	..........a	-327.74
	1147	11.48	-6.47768E-001	-1.28044E-004	0.00000E+000	-6.47000E-001	-7.50939E-004	10	..........a	-327.74
	1178	11.79	-6.78798E-001	-1.12838E-004	0.00000E+000	-6.78000E-001	-8.64272E-004	10	..........a	-327.74
	1209	12.1	-7.09776E-001	-1.02469E-004	0.00000E+000	-7.09000E-001	-9.24272E-004	10	..........a	-327.74
	1240	12.41	-7.40738E-001	-9.53424E-005	0.00000E+000	-7.40000E-001	-7.37606E-004	10	..........a	-327.74
	1271	12.72	-7.71729E-001	-8.85832E-005	0.00000E+000	-7.71000E-001	-8.47606E-004	10	..........a	-327.74
	1302	13.03	-8.02710E-001	-8.37039E-005	0.00000E+000	-8.02000E-001	-8.00939E-004	10	..........a	-327.74
	1333	13.34	-8.33652E-001	-7.94262E-005	0.00000E+000	-8.33000E-001	-7.52606E-004	10	..........a	-327.74
	1364	13.65	-8.64605E-001	-7.58586E-005	0.00000E+000	-8.64000E-001	-7.95939E-004	10	..........a	-327.74
	1395	13.96	-8.95675E-001	-7.26587E-005	0.00000E+000	-8.95000E-001	-8.24272E-004	10	..........a	-327.74
	1426	14.27	-9.26630E-001	-6.98180E-005	0.00000E+000	-9.26000E-001	-8.99272E-004	10	..........a	-327.74
	1457	14.58	-9.57704E-001	-6.73951E-005	0.00000E+000	-9.57000E-001	-8.90939E-004	10	..........a	-327.74
	1488	14.89	-9.88616E-001	-6.61585E-005	0.00000E+000	-9.88000E-001	-7.69272E-004	10	..........a	-327.74
	1519	15.2	-9.81633E-001	-6.16886E-005	0.00000E+000	-9.81000E-001	-7.95939E-004	10	..........a	-327.74
	1550	15.51	-9.50676E-001	-5.78871E-005	0.00000E+000	-9.50000E-001	-8.82606E-004	10	..........a	-327.74
	1581	15.82	-9.19666E-001	-5.56480E-005	0.00000E+000	-9.19000E-001	-7.74272E-004	10	..........a	-327.74
	1612	16.13	-8.88641E-001	-5.40522E-005	0.00000E+000	-8.88000E-001	-8.64272E-004	10	..........a	-327.74
	1643	16.44	-8.57624E-001	-5.26319E-005	0.00000E+000	-8.57000E-001	-7.74272E-004	10	..........a	-327.74
	1674	16.75	-8.26675E-001	-5.10110E-005	0.00000E+000	-8.26000E-001	-7.69272E-004	10	..........a	-327.74
	1705	17.06	-7.95705E-001	-4.92147E-005	0.00000E+000	-7.95000E-001	-8.85939E-004	10	..........a	-327.74
	1736	17.37	-7.64761E-001	-4.77275E-005	0.00000E+000	-7.64000E-001	-8.89272E-004	10	..........a	-327.74
	1767	17.68	-7.33730E-001	-4.64910E-005	0.00000E+000	-7.33000E-001	-7.72606E-004	10	..........a	-327.74
	1798	17.99	-7.02754E-001	-4.41683E-005	0.00000E+000	-7.02000E-001	-9.54272E-004	10	..........a	-327.74
	1829	18.3	-6.71776E-001	-4.28566E-005	0.00000E+000	-6.71000E-001	-8.45939E-004	10	..........a	-327.74
	1860	18.61	-6.40750E-001	-3.97318E-005	0.00000E+000	-6.40000E-001	-8.54272E-004	10	..........a	-327.74
	1891	18.92	-6.09801E-001	-3.35659E-005	0.00000E+000	-6.09000E-001	-8.10939E-004	10	..........a	-327.74
	1922	19.23	-5.78830E-001	-1.67139E-005	0.00000E+000	-5.78000E-001	-8.70939E-004	10	..........a	-327.74
	1953	19.54	-5.47814E-001	1.73408E-005	0.00000E+000	-5.47000E-001	-8.62605E-004	10	..........a	-327.74
	1984	19.85	-5.16851E-001	5.50801E-005	0.00000E+000	-5.16000E-001	-8.64272E-004	10	..........a	-327.74
	2015	20.16	-4.85879E-001	8.01199E-005	0.00000E+000	-4.85000E-001	-8.14272E-004	10	..........a	-327.74
	2046	20.47	-4.54866E-001	8.92602E-005	0.00000E+000	-4.54000E-001	-8.32606E-004	10	..........a	-327.74
	2077	20.78	-4.23939E-001	8.42055E-005	0.00000E+000	-4.23000E-001	-9.32606E-004	10	..........a	-327.74
	2108	21.09	-3.92876E-001	7.33775E-005	0.00000E+000	-3.92000E-001	-8.22606E-004	10	..........a	-327.74
	2139	21.4	-3.61847E-001	6.39865E-005	0.00000E+000	-3.61000E-001	-8.49272E-004	10	..........a	-327.74
	2170	21.71	-3.30926E-001	5.75950E-005	0.00000E+000	-3.30000E-001	-8.42605E-004	10	..........a	-327.74
	2201	22.02	-2.99914E-001	5.23982E-005	0.00000E+000	-2.99000E-001	-8.25939E-004	10	..........a	-327.74
	2232	22.33	-2.68941E-001	4.82709E-005	0.00000E+000	-2.68000E-001	-8.74272E-004	10	..........a	-327.74
	2263	22.64	-2.37901E-001	4.45780E-005	0.00000E+000	-2.37000E-001	-8.34272E-004	10	..........a	-327.74
	2294	22.95	-2.06925E-001	4.12193E-005	0.00000E+000	-2.06000E-001	-8.94272E-004	10	..........a	-327.74
	2325	23.26	-1.75999E-001	3.80695E-005	0.00000E+000	-1.75000E-001	-8.90939E-004	10	..........a	-327.74
	2356	23.57	-1.44979E-001	3.52288E-005	0.00000E+000	-1.44000E-001	-8.90939E-004	10	..........a	-327.74
	2387	23.88	-1.13930E-001	3.24466E-005	0.00000E+000	-1.13000E-001	-8.47606E-004	10	..........a	-327.74
	2418	24.19	-8.30114E-002	3.06419E-005	0.00000E+000	-8.20000E-002	-8.87605E-004	10	..........a	-327.74
	2449	24.5	-5.20323E-002	2.85281E-005	0.00000E+000	-5.10000E-002	-8.99272E-004	10	..........a	-327.74
	2480	24.81	-2.10364E-002	2.70827E-005	0.00000E+000	-2.00000E-002	-8.50939E-004	10	..........a	-327.74
	2511	25.12	9.98439E-003	2.56791E-005	0.00000E+000	1.10000E-002	-8.60939E-004	10	..........a	-327.74
	2542	25.43	4.09994E-002	2.44175E-005	0.00000E+000	4.20000E-002	-8.79272E-004	10	..........a	-327.74
	2573	25.74	7.19777E-002	2.35736E-005	0.00000E+000	7.30000E-002	-8.79272E-004	10	..........a	-327.74
	2604	26.05	1.02927E-001	2.41835E-005	0.00000E+000	1.04000E-001	-8.99272E-004	10	..........a	-327.74
	2635	26.36	1.33944E-001	2.48770E-005	0.00000E+000	1.35000E-001	-8.25939E-004	10	..........a	-327.74
	2666	26.67	1.64888E-001	2.59464E-005	0.00000E+000	1.66000E-001	-9.24272E-004	10	..........a	-327.74
	2697	26.98	1.95904E-001	2.61470E-005	0.00000E+000	1.97000E-001	-8.77606E-004	10	..........a	-327.74
	2728	27.29	2.26923E-001	2.46681E-005	0.00000E+000	2.28000E-001	-7.94272E-004	10	..........a	-327.74
	2759	27.6	2.57827E-001	2.38076E-005	0.00000E+000	2.59000E-001	-8.67606E-004	10	..........a	-327.74
	2790	27.91	2.88886E-001	2.23455E-005	0.00000E+000	2.90000E-001	-8.42605E-004	10	..........a	-327.74
	2821	28.22	3.19842E-001	2.12175E-005	0.00000E+000	3.21000E-001	-8.99272E-004	10	..........a	-327.74
	2852	28.53	3.50802E-001	2.07998E-005	0.00000E+000	3.52000E-001	-8.99272E-004	10	..........a	-327.74
	2883	28.84	3.81816E-001	2.00813E-005	0.00000E+000	3.83000E-001	-9.25939E-004	10	..........a	-327.74
	2914	29.15	4.12749E-001	1.90285E-005	0.00000E+000	4.14000E-001	-9.09272E-004	10	..........a	-327.74
	2945	29.46	4.43791E-001	1.80844E-005	0.00000E+000	4.45000E-001	-9.39272E-004	10	..........a	-327.74
	2976	29.77	4.74858E-001	1.73826E-005	0.00000E+000	4.76000E-001	-8.02606E-004	10	..........a	-327.74
	3000	30.01	4.98824E-001	1.65638E-005	0.00000E+000	5.00000E-001	-8.05939E-004	10	..........a	-327.74
CURVE2	TABLE
	Pt	T	Vf	Im	Vu	Sig	Ach	IERange	Over	Temp
	#	s	V vs. Ref.	A	V	V	V	#	bits	deg C
	3001	30.02	4.98800E-001	1.66390E-005	0.00000E+000	5.00000E-001	-9.37606E-004	10	..........a	-327.74