File: data/02-SI/Figures_S9_S11_RDE/15btmapaq-rde/1mkcl-15btmapaq-nitrogen-1000mvpers.DTA
EXPLAIN
TAG	CV
TITLE	LABEL	Cyclic Voltammetry	Test &Identifier
DATE	LABEL	1/31/2023	Date
TIME	LABEL	18:20:40	Time
NOTES	NOTES	1	&Notes...

PSTAT	PSTAT	REF3000-21108	Potentiostat
VINIT	POTEN	5.00000E-001	F	Initial &E (V)
VLIMIT1	POTEN	-1.00000E+000	F	Scan Limit &1 (V)
VLIMIT2	POTEN	5.00000E-001	F	Scan Limit &2 (V)
VFINAL	POTEN	5.00000E-001	F	Final &E (V)
SCANRATE	QUANT	9.99998E+002	&Scan Rate (mV/s)
STEPSIZE	QUANT	1.00000E+000	St&ep Size (mV)
CYCLES	IQUANT	1	C&ycles (#)
IMODE	SELECTOR	1	I/E Range &Mode
IRANGE	QUANT	1.00000E+001	&Max Current (mA)
AREA	QUANT	1.00000E+000	Electrode &Area (cm^2)
ELECTRODETYPE	SELECTOR	0	Electrode Type
STRIPPING	TOGGLE	F	Used for Stripping
POLARITY	TOGGLE	F	Signal Polarity
CONDIT	TWOPARAM	F	1.50000E+001	0.00000E+000	Conditionin&g	Time(s)	E(V)
DELAY	TWOPARAM	F	5.00000E+000	0.00000E+000	Init. De&lay	Time(s)	Stab.(mV/s)
EQDELAY	QUANT	0.00000E+000	Equil. &Time (s)
IRCOMP	SELECTOR	0	IRCom&p
PFCOR	QUANT	5.00000E+001	PF Corr. (ohm)
SAMPLINGMODE	SELECTOR	1	Sampling &Mode
EOC	QUANT	0	Open Circuit (V)
PSTATMODEL	IQUANT	5	Pstat Model
PSTATSECTION	LABEL	REF3000-21108	Pstat Section
PSTATSERIALNO	LABEL	21108	Pstat Serial Number
CTRLMODE	IQUANT	1	Control Mode
ELECTROMETER	IQUANT	0	RE=0 or CS=1
IESTAB	IQUANT	2	I/E Stability
CASPEED	IQUANT	4	Control Amp Speed
CONVENTION	IQUANT	1	Current Convention
ICHRANGE	IQUANT	2	Ich Range
ICHRANGEMODE	TOGGLE	F	Ich Auto Range
ICHOFFSETENABLE	TOGGLE	F	Ich Offset Enable
ICHOFFSET	QUANT	0	Ich Offset (V)
ICHFILTER	IQUANT	1	Ich Filter
VCHRANGE	IQUANT	2	Vch Range
VCHRANGEMODE	TOGGLE	F	Vch Auto Range
VCHOFFSETENABLE	TOGGLE	F	Vch Offset Enable
VCHOFFSET	QUANT	0	Vch Offset (V)
VCHFILTER	IQUANT	1	Vch Filter
ACHRANGE	IQUANT	2	Ach Range
ACHOFFSETENABLE	TOGGLE	F	Ach Offset Enable
ACHOFFSET	QUANT	0	Ach Offset (V)
ACHFILTER	IQUANT	0	Ach Filter
IERANGELOWERLIMIT	IQUANT	2	I/E Range Lower Limit
IERANGEMODE	TOGGLE	F	I/E AutoRange
IERANGE	IQUANT	10	I/E Range
POSFEEDENABLE	TOGGLE	F	Positive Feedback IR Comp
POSFEEDRESISTANCE	QUANT	0	Positive Feedback Resistance (ohm)
ACHSELECT	IQUANT	0	Ach Select
SENSECABLEID	IQUANT	14	Sense Cable ID
PWRCABLEID	IQUANT	7	Power Cable ID
DCCALDATE	LABEL	11/9/2022	DC Calibration Date
ACCALDATE	LABEL	11/9/2022	AC Calibration Date
THERMOSELECT	IQUANT	1	Thermo Select
FRAMEWORKVERSION	LABEL	7.8.2	Framework Version
INSTRUMENTVERSION	LABEL	4.40	Instrument Version
COMPLIANCEVOLTAGE	IQUANT	0	Compliance Voltage
CURVE1	TABLE
	Pt	T	Vf	Im	Vu	Sig	Ach	IERange	Over	Temp
	#	s	V vs. Ref.	A	V	V	V	#	bits	deg C
	0	0.001	4.98741E-001	6.12903E-005	0.00000E+000	5.00000E-001	-8.79272E-004	10	..........a	-327.74
	31	0.032	4.67683E-001	3.75622E-005	0.00000E+000	4.69000E-001	-8.45939E-004	10	..........a	-327.74
	62	0.063	4.36791E-001	2.72856E-005	0.00000E+000	4.38000E-001	-8.29272E-004	10	..........a	-327.74
	93	0.094	4.05699E-001	1.86800E-005	0.00000E+000	4.07000E-001	-7.95939E-004	10	..........a	-327.74
	124	0.125	3.74791E-001	1.55887E-005	0.00000E+000	3.76000E-001	-8.45939E-004	10	..........a	-327.74
	155	0.156	3.43691E-001	1.21632E-005	0.00000E+000	3.45000E-001	-9.12605E-004	10	..........a	-327.74
	186	0.187	3.12699E-001	1.10770E-005	0.00000E+000	3.14000E-001	-8.62605E-004	10	..........a	-327.74
	217	0.218	2.81799E-001	5.14501E-006	0.00000E+000	2.83000E-001	-8.29272E-004	10	..........a	-327.74
	248	0.249	2.50799E-001	2.38788E-006	0.00000E+000	2.52000E-001	-8.79272E-004	10	..........a	-327.74
	279	0.28	2.19708E-001	9.67536E-007	0.00000E+000	2.21000E-001	-8.12605E-004	10	..........a	-327.74
	310	0.311	1.88808E-001	-3.79478E-006	0.00000E+000	1.90000E-001	-7.95939E-004	10	..........a	-327.74
	341	0.342	1.57749E-001	-5.04803E-006	0.00000E+000	1.59000E-001	-7.95939E-004	10	..........a	-327.74
	372	0.373	1.26808E-001	-6.63547E-006	0.00000E+000	1.28000E-001	-8.29272E-004	10	..........a	-327.74
	403	0.404	9.58743E-002	-6.80257E-006	0.00000E+000	9.70000E-002	-7.79272E-004	10	..........a	-327.74
	434	0.435	6.48577E-002	-7.22031E-006	0.00000E+000	6.60000E-002	-8.45939E-004	10	..........a	-327.74
	465	0.466	3.38410E-002	-8.55711E-006	0.00000E+000	3.50000E-002	-8.45939E-004	10	..........a	-327.74
	496	0.497	2.84100E-003	-9.64325E-006	0.00000E+000	4.00001E-003	-8.62605E-004	10	..........a	-327.74
	527	0.528	-2.81757E-002	-9.05840E-006	0.00000E+000	-2.70000E-002	-7.62605E-004	10	..........a	-327.74
	558	0.559	-5.90340E-002	-1.00610E-005	0.00000E+000	-5.80000E-002	-7.95939E-004	10	..........a	-327.74
	589	0.59	-9.01090E-002	-1.07294E-005	0.00000E+000	-8.90000E-002	-7.62605E-004	10	..........a	-327.74
	620	0.621	-1.21126E-001	-1.17320E-005	0.00000E+000	-1.20000E-001	-7.95939E-004	10	..........a	-327.74
	651	0.652	-1.52142E-001	-1.35701E-005	0.00000E+000	-1.51000E-001	-8.12605E-004	10	..........a	-327.74
	682	0.683	-1.83042E-001	-1.44891E-005	0.00000E+000	-1.82000E-001	-7.45939E-004	10	..........a	-327.74
	713	0.714	-2.14051E-001	-1.72463E-005	0.00000E+000	-2.13000E-001	-8.45939E-004	10	..........a	-327.74
	744	0.745	-2.45051E-001	-1.98363E-005	0.00000E+000	-2.44000E-001	-7.29272E-004	10	..........a	-327.74
	775	0.776	-2.76059E-001	-2.15908E-005	0.00000E+000	-2.75000E-001	-8.12605E-004	10	..........a	-327.74
	806	0.807	-3.07059E-001	-2.42644E-005	0.00000E+000	-3.06000E-001	-7.12606E-004	10	..........a	-327.74
	837	0.838	-3.37984E-001	-2.75228E-005	0.00000E+000	-3.37000E-001	-8.29272E-004	10	..........a	-327.74
	868	0.869	-3.69151E-001	-3.29536E-005	0.00000E+000	-3.68000E-001	-8.79272E-004	10	..........a	-327.74
	899	0.9	-4.00042E-001	-4.23947E-005	0.00000E+000	-3.99000E-001	-7.45939E-004	10	..........a	-327.74
	930	0.931	-4.30942E-001	-7.23889E-005	0.00000E+000	-4.30000E-001	-8.12605E-004	10	..........a	-327.74
	961	0.962	-4.62001E-001	-1.22435E-004	0.00000E+000	-4.61000E-001	-7.45939E-004	10	..........a	-327.74
	992	0.993	-4.92842E-001	-1.76826E-004	0.00000E+000	-4.92000E-001	-8.29272E-004	10	..........a	-327.74
	1023	1.024	-5.23867E-001	-2.53524E-004	0.00000E+000	-5.23000E-001	-7.95939E-004	10	..........a	-327.74
	1054	1.055	-5.54901E-001	-3.86786E-004	0.00000E+000	-5.54000E-001	-8.29272E-004	10	..........a	-327.74
	1085	1.086	-5.85976E-001	-4.86794E-004	0.00000E+000	-5.85000E-001	-9.29272E-004	10	..........a	-327.74
	1116	1.117	-6.17001E-001	-4.94982E-004	0.00000E+000	-6.16000E-001	-7.95939E-004	10	..........a	-327.74
	1147	1.148	-6.47809E-001	-4.43850E-004	0.00000E+000	-6.47000E-001	-7.45939E-004	10	..........a	-327.74
	1178	1.179	-6.78876E-001	-3.95893E-004	0.00000E+000	-6.78000E-001	-7.45939E-004	10	..........a	-327.74
	1209	1.21	-7.09901E-001	-3.57376E-004	0.00000E+000	-7.09000E-001	-7.79272E-004	10	..........a	-327.74
	1240	1.241	-7.40817E-001	-3.28301E-004	0.00000E+000	-7.40000E-001	-7.45939E-004	10	..........a	-327.74
	1271	1.272	-7.71901E-001	-3.08082E-004	0.00000E+000	-7.71000E-001	-9.29272E-004	10	..........a	-327.74
	1302	1.303	-8.02817E-001	-2.89952E-004	0.00000E+000	-8.02000E-001	-7.79272E-004	10	..........a	-327.74
	1333	1.334	-8.33784E-001	-2.74996E-004	0.00000E+000	-8.33000E-001	-8.79272E-004	10	..........a	-327.74
	1364	1.365	-8.64826E-001	-2.61461E-004	0.00000E+000	-8.64000E-001	-8.29272E-004	10	..........a	-327.74
	1395	1.396	-8.95801E-001	-2.49597E-004	0.00000E+000	-8.95000E-001	-8.62605E-004	10	..........a	-327.74
	1426	1.427	-9.26784E-001	-2.41744E-004	0.00000E+000	-9.26000E-001	-8.95939E-004	10	..........a	-327.74
	1457	1.458	-9.57809E-001	-2.34642E-004	0.00000E+000	-9.57000E-001	-8.79272E-004	10	..........a	-327.74
	1488	1.489	-9.88667E-001	-2.28125E-004	0.00000E+000	-9.88000E-001	-8.62605E-004	10	..........a	-327.74
	1519	1.52	-9.81801E-001	-2.00972E-004	0.00000E+000	-9.81000E-001	-8.45939E-004	10	..........a	-327.74
	1550	1.551	-9.50759E-001	-1.83677E-004	0.00000E+000	-9.50000E-001	-8.45939E-004	10	..........a	-327.74
	1581	1.582	-9.19751E-001	-1.75155E-004	0.00000E+000	-9.19000E-001	-6.95939E-004	10	..........a	-327.74
	1612	1.613	-8.88742E-001	-1.66466E-004	0.00000E+000	-8.88000E-001	-7.95939E-004	10	..........a	-327.74
	1643	1.644	-8.57776E-001	-1.62038E-004	0.00000E+000	-8.57000E-001	-7.95939E-004	10	..........a	-327.74
	1674	1.675	-8.26776E-001	-1.52429E-004	0.00000E+000	-8.26000E-001	-8.62605E-004	10	..........a	-327.74
	1705	1.706	-7.95809E-001	-1.49171E-004	0.00000E+000	-7.95000E-001	-7.79272E-004	10	..........a	-327.74
	1736	1.737	-7.64792E-001	-1.44659E-004	0.00000E+000	-7.64000E-001	-8.29272E-004	10	..........a	-327.74
	1767	1.768	-7.33876E-001	-1.36471E-004	0.00000E+000	-7.33000E-001	-7.95939E-004	10	..........a	-327.74
	1798	1.799	-7.02876E-001	-1.30874E-004	0.00000E+000	-7.02000E-001	-8.79272E-004	10	..........a	-327.74
	1829	1.83	-6.71809E-001	-1.19845E-004	0.00000E+000	-6.71000E-001	-7.29272E-004	10	..........a	-327.74
	1860	1.861	-6.40926E-001	-1.06059E-004	0.00000E+000	-6.40000E-001	-7.62605E-004	10	..........a	-327.74
	1891	1.892	-6.09951E-001	-7.94906E-005	0.00000E+000	-6.09000E-001	-8.45939E-004	10	..........a	-327.74
	1922	1.923	-5.78942E-001	-3.27029E-005	0.00000E+000	-5.78000E-001	-7.62605E-004	10	..........a	-327.74
	1953	1.954	-5.48009E-001	3.82306E-005	0.00000E+000	-5.47000E-001	-8.95939E-004	10	..........a	-327.74
	1984	1.985	-5.17017E-001	1.08913E-004	0.00000E+000	-5.16000E-001	-8.95939E-004	10	..........a	-327.74
	2015	2.016	-4.86001E-001	1.76672E-004	0.00000E+000	-4.85000E-001	-8.29272E-004	10	..........a	-327.74
	2046	2.047	-4.55026E-001	2.21956E-004	0.00000E+000	-4.54000E-001	-8.79272E-004	10	..........a	-327.74
	2077	2.078	-4.23967E-001	2.28055E-004	0.00000E+000	-4.23000E-001	-8.12605E-004	10	..........a	-327.74
	2108	2.109	-3.93134E-001	2.12766E-004	0.00000E+000	-3.92000E-001	-8.29272E-004	10	..........a	-327.74
	2139	2.14	-3.62017E-001	1.94385E-004	0.00000E+000	-3.61000E-001	-8.29272E-004	10	..........a	-327.74
	2170	2.171	-3.30984E-001	1.80098E-004	0.00000E+000	-3.30000E-001	-8.95939E-004	10	..........a	-327.74
	2201	2.202	-3.00051E-001	1.70657E-004	0.00000E+000	-2.99000E-001	-8.29272E-004	10	..........a	-327.74
	2232	2.233	-2.69059E-001	1.62803E-004	0.00000E+000	-2.68000E-001	-7.95939E-004	10	..........a	-327.74
	2263	2.264	-2.38042E-001	1.55200E-004	0.00000E+000	-2.37000E-001	-8.12605E-004	10	..........a	-327.74
	2294	2.295	-2.06992E-001	1.46009E-004	0.00000E+000	-2.06000E-001	-7.62605E-004	10	..........a	-327.74
	2325	2.326	-1.76092E-001	1.35232E-004	0.00000E+000	-1.75000E-001	-8.45939E-004	10	..........a	-327.74
	2356	2.357	-1.45117E-001	1.26125E-004	0.00000E+000	-1.44000E-001	-8.29272E-004	10	..........a	-327.74
	2387	2.388	-1.14067E-001	1.18020E-004	0.00000E+000	-1.13000E-001	-8.45939E-004	10	..........a	-327.74
	2418	2.419	-8.29923E-002	1.09498E-004	0.00000E+000	-8.20000E-002	-8.62605E-004	10	..........a	-327.74
	2449	2.45	-5.21590E-002	1.05822E-004	0.00000E+000	-5.10000E-002	-8.79272E-004	10	..........a	-327.74
	2480	2.481	-2.11423E-002	9.81356E-005	0.00000E+000	-2.00000E-002	-8.12605E-004	10	..........a	-327.74
	2511	2.512	9.87434E-003	9.52949E-005	0.00000E+000	1.10000E-002	-7.95939E-004	10	..........a	-327.74
	2542	2.543	4.08660E-002	9.42923E-005	0.00000E+000	4.20000E-002	-8.12605E-004	10	..........a	-327.74
	2573	2.574	7.18660E-002	9.24542E-005	0.00000E+000	7.30000E-002	-7.95939E-004	10	..........a	-327.74
	2604	2.605	1.02783E-001	9.10339E-005	0.00000E+000	1.04000E-001	-8.45939E-004	10	..........a	-327.74
	2635	2.636	1.33833E-001	8.98642E-005	0.00000E+000	1.35000E-001	-8.45939E-004	10	..........a	-327.74
	2666	2.667	1.64874E-001	9.02820E-005	0.00000E+000	1.66000E-001	-8.29272E-004	10	..........a	-327.74
	2697	2.698	1.95791E-001	8.91123E-005	0.00000E+000	1.97000E-001	-8.29272E-004	10	..........a	-327.74
	2728	2.729	2.26824E-001	8.71906E-005	0.00000E+000	2.28000E-001	-7.95939E-004	10	..........a	-327.74
	2759	2.76	2.57799E-001	8.32638E-005	0.00000E+000	2.59000E-001	-7.95939E-004	10	..........a	-327.74
	2790	2.791	2.88691E-001	8.02560E-005	0.00000E+000	2.90000E-001	-8.45939E-004	10	..........a	-327.74
	2821	2.822	3.19783E-001	7.65798E-005	0.00000E+000	3.21000E-001	-7.79272E-004	10	..........a	-327.74
	2852	2.853	3.50741E-001	7.39062E-005	0.00000E+000	3.52000E-001	-8.62605E-004	10	..........a	-327.74
	2883	2.884	3.81716E-001	7.08985E-005	0.00000E+000	3.83000E-001	-8.62605E-004	10	..........a	-327.74
	2914	2.915	4.12683E-001	6.76400E-005	0.00000E+000	4.14000E-001	-8.62605E-004	10	..........a	-327.74
	2945	2.946	4.43624E-001	6.53007E-005	0.00000E+000	4.45000E-001	-8.12605E-004	10	..........a	-327.74
	2976	2.977	4.74758E-001	6.36297E-005	0.00000E+000	4.76000E-001	-8.95939E-004	10	..........a	-327.74
	3000	3.001	4.98633E-001	6.10396E-005	0.00000E+000	5.00000E-001	-8.79272E-004	10	..........a	-327.74
CURVE2	TABLE
	Pt	T	Vf	Im	Vu	Sig	Ach	IERange	Over	Temp
	#	s	V vs. Ref.	A	V	V	V	#	bits	deg C
	3001	3.002	4.98708E-001	6.03712E-005	0.00000E+000	5.00000E-001	-8.45939E-004	10	..........a	-327.74