File: data/02-SI/Figures_S9_S11_RDE/15btmapaq-rde/1mkcl-15btmapaq-nitrogen-3000mvpers.DTA
EXPLAIN
TAG	CV
TITLE	LABEL	Cyclic Voltammetry	Test &Identifier
DATE	LABEL	1/31/2023	Date
TIME	LABEL	18:21:06	Time
NOTES	NOTES	1	&Notes...

PSTAT	PSTAT	REF3000-21108	Potentiostat
VINIT	POTEN	5.00000E-001	F	Initial &E (V)
VLIMIT1	POTEN	-1.00000E+000	F	Scan Limit &1 (V)
VLIMIT2	POTEN	5.00000E-001	F	Scan Limit &2 (V)
VFINAL	POTEN	5.00000E-001	F	Final &E (V)
SCANRATE	QUANT	2.99999E+003	&Scan Rate (mV/s)
STEPSIZE	QUANT	1.00000E+000	St&ep Size (mV)
CYCLES	IQUANT	1	C&ycles (#)
IMODE	SELECTOR	1	I/E Range &Mode
IRANGE	QUANT	1.00000E+001	&Max Current (mA)
AREA	QUANT	1.00000E+000	Electrode &Area (cm^2)
ELECTRODETYPE	SELECTOR	0	Electrode Type
STRIPPING	TOGGLE	F	Used for Stripping
POLARITY	TOGGLE	F	Signal Polarity
CONDIT	TWOPARAM	F	1.50000E+001	0.00000E+000	Conditionin&g	Time(s)	E(V)
DELAY	TWOPARAM	F	5.00000E+000	0.00000E+000	Init. De&lay	Time(s)	Stab.(mV/s)
EQDELAY	QUANT	0.00000E+000	Equil. &Time (s)
IRCOMP	SELECTOR	0	IRCom&p
PFCOR	QUANT	5.00000E+001	PF Corr. (ohm)
SAMPLINGMODE	SELECTOR	1	Sampling &Mode
EOC	QUANT	0	Open Circuit (V)
PSTATMODEL	IQUANT	5	Pstat Model
PSTATSECTION	LABEL	REF3000-21108	Pstat Section
PSTATSERIALNO	LABEL	21108	Pstat Serial Number
CTRLMODE	IQUANT	1	Control Mode
ELECTROMETER	IQUANT	0	RE=0 or CS=1
IESTAB	IQUANT	2	I/E Stability
CASPEED	IQUANT	4	Control Amp Speed
CONVENTION	IQUANT	1	Current Convention
ICHRANGE	IQUANT	2	Ich Range
ICHRANGEMODE	TOGGLE	F	Ich Auto Range
ICHOFFSETENABLE	TOGGLE	F	Ich Offset Enable
ICHOFFSET	QUANT	0	Ich Offset (V)
ICHFILTER	IQUANT	1	Ich Filter
VCHRANGE	IQUANT	2	Vch Range
VCHRANGEMODE	TOGGLE	F	Vch Auto Range
VCHOFFSETENABLE	TOGGLE	F	Vch Offset Enable
VCHOFFSET	QUANT	0	Vch Offset (V)
VCHFILTER	IQUANT	1	Vch Filter
ACHRANGE	IQUANT	2	Ach Range
ACHOFFSETENABLE	TOGGLE	F	Ach Offset Enable
ACHOFFSET	QUANT	0	Ach Offset (V)
ACHFILTER	IQUANT	0	Ach Filter
IERANGELOWERLIMIT	IQUANT	2	I/E Range Lower Limit
IERANGEMODE	TOGGLE	F	I/E AutoRange
IERANGE	IQUANT	10	I/E Range
POSFEEDENABLE	TOGGLE	F	Positive Feedback IR Comp
POSFEEDRESISTANCE	QUANT	0	Positive Feedback Resistance (ohm)
ACHSELECT	IQUANT	0	Ach Select
SENSECABLEID	IQUANT	14	Sense Cable ID
PWRCABLEID	IQUANT	7	Power Cable ID
DCCALDATE	LABEL	11/9/2022	DC Calibration Date
ACCALDATE	LABEL	11/9/2022	AC Calibration Date
THERMOSELECT	IQUANT	1	Thermo Select
FRAMEWORKVERSION	LABEL	7.8.2	Framework Version
INSTRUMENTVERSION	LABEL	4.40	Instrument Version
COMPLIANCEVOLTAGE	IQUANT	0	Compliance Voltage
CURVE1	TABLE
	Pt	T	Vf	Im	Vu	Sig	Ach	IERange	Over	Temp
	#	s	V vs. Ref.	A	V	V	V	#	bits	deg C
	0	0.000333	4.98716E-001	6.72223E-005	0.00000E+000	5.00000E-001	-7.29272E-004	10	..........a	-327.74
	32	0.011	4.66641E-001	3.56406E-005	0.00000E+000	4.68000E-001	-8.29272E-004	10	..........a	-327.74
	64	0.021667	4.34666E-001	2.58653E-005	0.00000E+000	4.36000E-001	-8.29272E-004	10	..........a	-327.74
	96	0.032333	4.02741E-001	1.60900E-005	0.00000E+000	4.04000E-001	-8.29272E-004	10	..........a	-327.74
	128	0.043	3.70766E-001	1.45861E-005	0.00000E+000	3.72000E-001	-9.79272E-004	10	..........a	-327.74
	160	0.053667	3.38691E-001	7.56795E-006	0.00000E+000	3.40000E-001	-7.29272E-004	10	..........a	-327.74
	192	0.064333	3.06741E-001	5.31211E-006	0.00000E+000	3.08000E-001	-8.29272E-004	10	..........a	-327.74
	224	0.075	2.74841E-001	-3.96188E-006	0.00000E+000	2.76000E-001	-8.29272E-004	10	..........a	-327.74
	256	0.085667	2.42766E-001	-6.21772E-006	0.00000E+000	2.44000E-001	-7.29272E-004	10	..........a	-327.74
	288	0.096333	2.10791E-001	-1.07294E-005	0.00000E+000	2.12000E-001	-7.79272E-004	10	..........a	-327.74
	320	0.107	1.78766E-001	-1.32359E-005	0.00000E+000	1.80000E-001	-8.29272E-004	10	..........a	-327.74
	352	0.117667	1.46816E-001	-1.79982E-005	0.00000E+000	1.48000E-001	-8.79272E-004	10	..........a	-327.74
	384	0.128333	1.14866E-001	-1.97527E-005	0.00000E+000	1.16000E-001	-8.29272E-004	10	..........a	-327.74
	416	0.139	8.27660E-002	-2.02540E-005	0.00000E+000	8.40000E-002	-7.29272E-004	10	..........a	-327.74
	448	0.149667	5.08660E-002	-2.25099E-005	0.00000E+000	5.20000E-002	-8.79272E-004	10	..........a	-327.74
	480	0.160333	1.88910E-002	-2.02540E-005	0.00000E+000	2.00000E-002	-7.29272E-004	10	..........a	-327.74
	512	0.171	-1.32090E-002	-2.30112E-005	0.00000E+000	-1.20000E-002	-7.79272E-004	10	..........a	-327.74
	544	0.181667	-4.51340E-002	-2.50164E-005	0.00000E+000	-4.40000E-002	-8.29272E-004	10	..........a	-327.74
	576	0.192333	-7.72340E-002	-2.42644E-005	0.00000E+000	-7.60000E-002	-8.29272E-004	10	..........a	-327.74
	608	0.203	-1.09184E-001	-2.67709E-005	0.00000E+000	-1.08000E-001	-7.29272E-004	10	..........a	-327.74
	640	0.213667	-1.41159E-001	-2.67709E-005	0.00000E+000	-1.40000E-001	-7.79272E-004	10	..........a	-327.74
	672	0.224333	-1.73084E-001	-2.90267E-005	0.00000E+000	-1.72000E-001	-8.29272E-004	10	..........a	-327.74
	704	0.235	-2.05134E-001	-3.40397E-005	0.00000E+000	-2.04000E-001	-7.79272E-004	10	..........a	-327.74
	736	0.245667	-2.37134E-001	-4.00553E-005	0.00000E+000	-2.36000E-001	-7.79272E-004	10	..........a	-327.74
	768	0.256333	-2.69084E-001	-4.48176E-005	0.00000E+000	-2.68000E-001	-7.79272E-004	10	..........a	-327.74
	800	0.267	-3.01059E-001	-4.85773E-005	0.00000E+000	-3.00000E-001	-7.79272E-004	10	..........a	-327.74
	832	0.277667	-3.32959E-001	-5.60968E-005	0.00000E+000	-3.32000E-001	-6.79272E-004	10	..........a	-327.74
	864	0.288333	-3.65034E-001	-6.13604E-005	0.00000E+000	-3.64000E-001	-8.29272E-004	10	..........a	-327.74
	896	0.299	-3.96884E-001	-7.36422E-005	0.00000E+000	-3.96000E-001	-7.79272E-004	10	..........a	-327.74
	928	0.309667	-4.29059E-001	-1.15500E-004	0.00000E+000	-4.28000E-001	-9.29272E-004	10	..........a	-327.74
	960	0.320333	-4.60959E-001	-1.96209E-004	0.00000E+000	-4.60000E-001	-6.79272E-004	10	..........a	-327.74
	992	0.331	-4.93109E-001	-2.80928E-004	0.00000E+000	-4.92000E-001	-8.29272E-004	10	..........a	-327.74
	1024	0.341667	-5.24984E-001	-3.97981E-004	0.00000E+000	-5.24000E-001	-8.79272E-004	10	..........a	-327.74
	1056	0.352333	-5.56959E-001	-6.17048E-004	0.00000E+000	-5.56000E-001	-8.79272E-004	10	..........a	-327.74
	1088	0.363	-5.88934E-001	-8.24334E-004	0.00000E+000	-5.88000E-001	-6.79272E-004	10	..........a	-327.74
	1120	0.373667	-6.21034E-001	-8.68699E-004	0.00000E+000	-6.20000E-001	-8.29272E-004	10	..........a	-327.74
	1152	0.384333	-6.52884E-001	-8.02779E-004	0.00000E+000	-6.52000E-001	-8.79272E-004	10	..........a	-327.74
	1184	0.395	-6.84884E-001	-7.27083E-004	0.00000E+000	-6.84000E-001	-8.29272E-004	10	..........a	-327.74
	1216	0.405667	-7.16834E-001	-6.58405E-004	0.00000E+000	-7.16000E-001	-7.79272E-004	10	..........a	-327.74
	1248	0.416333	-7.48909E-001	-6.07774E-004	0.00000E+000	-7.48000E-001	-7.79272E-004	10	..........a	-327.74
	1280	0.427	-7.80909E-001	-5.66668E-004	0.00000E+000	-7.80000E-001	-8.79272E-004	10	..........a	-327.74
	1312	0.437667	-8.12809E-001	-5.29321E-004	0.00000E+000	-8.12000E-001	-7.29272E-004	10	..........a	-327.74
	1344	0.448333	-8.44759E-001	-5.02502E-004	0.00000E+000	-8.44000E-001	-7.29272E-004	10	..........a	-327.74
	1376	0.459	-8.76859E-001	-4.79442E-004	0.00000E+000	-8.76000E-001	-7.29272E-004	10	..........a	-327.74
	1408	0.469667	-9.08809E-001	-4.56382E-004	0.00000E+000	-9.08000E-001	-7.29272E-004	10	..........a	-327.74
	1440	0.480333	-9.40734E-001	-4.39338E-004	0.00000E+000	-9.40000E-001	-7.79272E-004	10	..........a	-327.74
	1472	0.491	-9.72734E-001	-4.27307E-004	0.00000E+000	-9.72000E-001	-8.29272E-004	10	..........a	-327.74
	1504	0.501667	-9.96834E-001	-3.88206E-004	0.00000E+000	-9.96000E-001	-7.29272E-004	10	..........a	-327.74
	1536	0.512333	-9.64834E-001	-3.26045E-004	0.00000E+000	-9.64000E-001	-7.79272E-004	10	..........a	-327.74
	1568	0.523	-9.32759E-001	-3.00228E-004	0.00000E+000	-9.32000E-001	-8.29272E-004	10	..........a	-327.74
	1600	0.533667	-9.00784E-001	-2.77921E-004	0.00000E+000	-9.00000E-001	-7.29272E-004	10	..........a	-327.74
	1632	0.544333	-8.68759E-001	-2.64135E-004	0.00000E+000	-8.68000E-001	-8.29272E-004	10	..........a	-327.74
	1664	0.555	-8.36784E-001	-2.49597E-004	0.00000E+000	-8.36000E-001	-8.29272E-004	10	..........a	-327.74
	1696	0.565667	-8.05009E-001	-2.35310E-004	0.00000E+000	-8.04000E-001	-8.79272E-004	10	..........a	-327.74
	1728	0.576333	-7.72909E-001	-2.27540E-004	0.00000E+000	-7.72000E-001	-9.29272E-004	10	..........a	-327.74
	1760	0.587	-7.40959E-001	-2.15008E-004	0.00000E+000	-7.40000E-001	-8.29272E-004	10	..........a	-327.74
	1792	0.597667	-7.09009E-001	-1.98465E-004	0.00000E+000	-7.08000E-001	-8.79272E-004	10	..........a	-327.74
	1824	0.608333	-6.76934E-001	-1.78915E-004	0.00000E+000	-6.76000E-001	-8.29272E-004	10	..........a	-327.74
	1856	0.619	-6.44909E-001	-1.52095E-004	0.00000E+000	-6.44000E-001	-7.29272E-004	10	..........a	-327.74
	1888	0.629667	-6.13059E-001	-1.03971E-004	0.00000E+000	-6.12000E-001	-7.29272E-004	10	..........a	-327.74
	1920	0.640333	-5.80959E-001	-2.37631E-005	0.00000E+000	-5.80000E-001	-9.29272E-004	10	..........a	-327.74
	1952	0.651	-5.49009E-001	7.47417E-005	0.00000E+000	-5.48000E-001	-8.29272E-004	10	..........a	-327.74
	1984	0.661667	-5.16984E-001	1.72745E-004	0.00000E+000	-5.16000E-001	-7.29272E-004	10	..........a	-327.74
	2016	0.672333	-4.84959E-001	2.69997E-004	0.00000E+000	-4.84000E-001	-8.29272E-004	10	..........a	-327.74
	2048	0.683	-4.52909E-001	3.46946E-004	0.00000E+000	-4.52000E-001	-7.29272E-004	10	..........a	-327.74
	2080	0.693667	-4.20984E-001	3.68502E-004	0.00000E+000	-4.20000E-001	-8.29272E-004	10	..........a	-327.74
	2112	0.704333	-3.89159E-001	3.55969E-004	0.00000E+000	-3.88000E-001	-8.29272E-004	10	..........a	-327.74
	2144	0.715	-3.57059E-001	3.34915E-004	0.00000E+000	-3.56000E-001	-7.79272E-004	10	..........a	-327.74
	2176	0.725667	-3.25009E-001	3.20377E-004	0.00000E+000	-3.24000E-001	-7.79272E-004	10	..........a	-327.74
	2208	0.736333	-2.93134E-001	3.07093E-004	0.00000E+000	-2.92000E-001	-8.29272E-004	10	..........a	-327.74
	2240	0.747	-2.61084E-001	2.99323E-004	0.00000E+000	-2.60000E-001	-7.29272E-004	10	..........a	-327.74
	2272	0.757667	-2.29084E-001	2.86540E-004	0.00000E+000	-2.28000E-001	-8.79272E-004	10	..........a	-327.74
	2304	0.768333	-1.97134E-001	2.72253E-004	0.00000E+000	-1.96000E-001	-7.79272E-004	10	..........a	-327.74
	2336	0.779	-1.65184E-001	2.57966E-004	0.00000E+000	-1.64000E-001	-8.29272E-004	10	..........a	-327.74
	2368	0.789667	-1.33184E-001	2.40671E-004	0.00000E+000	-1.32000E-001	-9.29272E-004	10	..........a	-327.74
	2400	0.800333	-1.01209E-001	2.22875E-004	0.00000E+000	-1.00000E-001	-7.79272E-004	10	..........a	-327.74
	2432	0.811	-6.91090E-002	2.10844E-004	0.00000E+000	-6.80000E-002	-8.79272E-004	10	..........a	-327.74
	2464	0.821667	-3.70840E-002	2.02823E-004	0.00000E+000	-3.60000E-002	-7.29272E-004	10	..........a	-327.74
	2496	0.832333	-5.18400E-003	1.94802E-004	0.00000E+000	-4.00001E-003	-8.29272E-004	10	..........a	-327.74
	2528	0.843	2.68410E-002	1.91043E-004	0.00000E+000	2.80000E-002	-8.29272E-004	10	..........a	-327.74
	2560	0.853667	5.87660E-002	1.89288E-004	0.00000E+000	6.00000E-002	-8.29272E-004	10	..........a	-327.74
	2592	0.864333	9.07410E-002	1.90040E-004	0.00000E+000	9.20000E-002	-8.29272E-004	10	..........a	-327.74
	2624	0.875	1.22791E-001	1.88286E-004	0.00000E+000	1.24000E-001	-7.29272E-004	10	..........a	-327.74
	2656	0.885667	1.54766E-001	1.91795E-004	0.00000E+000	1.56000E-001	-8.79272E-004	10	..........a	-327.74
	2688	0.896333	1.86741E-001	1.91544E-004	0.00000E+000	1.88000E-001	-9.29272E-004	10	..........a	-327.74
	2720	0.907	2.18791E-001	1.89789E-004	0.00000E+000	2.20000E-001	-6.29272E-004	10	..........a	-327.74
	2752	0.917667	2.50841E-001	1.84526E-004	0.00000E+000	2.52000E-001	-7.29272E-004	10	..........a	-327.74
	2784	0.928333	2.82791E-001	1.76004E-004	0.00000E+000	2.84000E-001	-8.29272E-004	10	..........a	-327.74
	2816	0.939	3.14691E-001	1.67482E-004	0.00000E+000	3.16000E-001	-8.29272E-004	10	..........a	-327.74
	2848	0.949667	3.46691E-001	1.60213E-004	0.00000E+000	3.48000E-001	-7.79272E-004	10	..........a	-327.74
	2880	0.96033	3.78641E-001	1.54448E-004	0.00000E+000	3.80000E-001	-8.79272E-004	10	..........a	-327.74
	2912	0.971	4.10691E-001	1.45926E-004	0.00000E+000	4.12000E-001	-8.79272E-004	10	..........a	-327.74
	2944	0.98167	4.42691E-001	1.44422E-004	0.00000E+000	4.44000E-001	-8.29272E-004	10	..........a	-327.74
	2976	0.99233	4.74616E-001	1.40662E-004	0.00000E+000	4.76000E-001	-8.29272E-004	10	..........a	-327.74
	3000	1.00033	4.98716E-001	1.40662E-004	0.00000E+000	5.00000E-001	-7.79272E-004	10	..........a	-327.74
CURVE2	TABLE
	Pt	T	Vf	Im	Vu	Sig	Ach	IERange	Over	Temp
	#	s	V vs. Ref.	A	V	V	V	#	bits	deg C
	3001	1.00067	4.98666E-001	1.33393E-004	0.00000E+000	5.00000E-001	-8.79272E-004	10	..........a	-327.74