File: data/02-SI/Figures_S9_S11_RDE/14btmapaq-rde/1mkcl-5mmolar14btmapaq-nitrogen-800mvpers.DTA
EXPLAIN
TAG	CV
TITLE	LABEL	Cyclic Voltammetry	Test &Identifier
DATE	LABEL	1/31/2023	Date
TIME	LABEL	14:03:57	Time
NOTES	NOTES	1	&Notes...

PSTAT	PSTAT	REF3000-21108	Potentiostat
VINIT	POTEN	5.00000E-001	F	Initial &E (V)
VLIMIT1	POTEN	-1.00000E+000	F	Scan Limit &1 (V)
VLIMIT2	POTEN	5.00000E-001	F	Scan Limit &2 (V)
VFINAL	POTEN	5.00000E-001	F	Final &E (V)
SCANRATE	QUANT	7.99998E+002	&Scan Rate (mV/s)
STEPSIZE	QUANT	1.00000E+000	St&ep Size (mV)
CYCLES	IQUANT	1	C&ycles (#)
IMODE	SELECTOR	1	I/E Range &Mode
IRANGE	QUANT	1.00000E+001	&Max Current (mA)
AREA	QUANT	1.00000E+000	Electrode &Area (cm^2)
ELECTRODETYPE	SELECTOR	0	Electrode Type
STRIPPING	TOGGLE	F	Used for Stripping
POLARITY	TOGGLE	F	Signal Polarity
CONDIT	TWOPARAM	F	1.50000E+001	0.00000E+000	Conditionin&g	Time(s)	E(V)
DELAY	TWOPARAM	F	5.00000E+000	0.00000E+000	Init. De&lay	Time(s)	Stab.(mV/s)
EQDELAY	QUANT	0.00000E+000	Equil. &Time (s)
IRCOMP	SELECTOR	0	IRCom&p
PFCOR	QUANT	5.00000E+001	PF Corr. (ohm)
SAMPLINGMODE	SELECTOR	1	Sampling &Mode
EOC	QUANT	0	Open Circuit (V)
PSTATMODEL	IQUANT	5	Pstat Model
PSTATSECTION	LABEL	REF3000-21108	Pstat Section
PSTATSERIALNO	LABEL	21108	Pstat Serial Number
CTRLMODE	IQUANT	1	Control Mode
ELECTROMETER	IQUANT	0	RE=0 or CS=1
IESTAB	IQUANT	2	I/E Stability
CASPEED	IQUANT	4	Control Amp Speed
CONVENTION	IQUANT	1	Current Convention
ICHRANGE	IQUANT	2	Ich Range
ICHRANGEMODE	TOGGLE	F	Ich Auto Range
ICHOFFSETENABLE	TOGGLE	F	Ich Offset Enable
ICHOFFSET	QUANT	0	Ich Offset (V)
ICHFILTER	IQUANT	1	Ich Filter
VCHRANGE	IQUANT	2	Vch Range
VCHRANGEMODE	TOGGLE	F	Vch Auto Range
VCHOFFSETENABLE	TOGGLE	F	Vch Offset Enable
VCHOFFSET	QUANT	0	Vch Offset (V)
VCHFILTER	IQUANT	1	Vch Filter
ACHRANGE	IQUANT	2	Ach Range
ACHOFFSETENABLE	TOGGLE	F	Ach Offset Enable
ACHOFFSET	QUANT	0	Ach Offset (V)
ACHFILTER	IQUANT	0	Ach Filter
IERANGELOWERLIMIT	IQUANT	2	I/E Range Lower Limit
IERANGEMODE	TOGGLE	F	I/E AutoRange
IERANGE	IQUANT	10	I/E Range
POSFEEDENABLE	TOGGLE	F	Positive Feedback IR Comp
POSFEEDRESISTANCE	QUANT	0	Positive Feedback Resistance (ohm)
ACHSELECT	IQUANT	0	Ach Select
SENSECABLEID	IQUANT	14	Sense Cable ID
PWRCABLEID	IQUANT	7	Power Cable ID
DCCALDATE	LABEL	11/9/2022	DC Calibration Date
ACCALDATE	LABEL	11/9/2022	AC Calibration Date
THERMOSELECT	IQUANT	1	Thermo Select
FRAMEWORKVERSION	LABEL	7.8.2	Framework Version
INSTRUMENTVERSION	LABEL	4.40	Instrument Version
COMPLIANCEVOLTAGE	IQUANT	0	Compliance Voltage
CURVE1	TABLE
	Pt	T	Vf	Im	Vu	Sig	Ach	IERange	Over	Temp
	#	s	V vs. Ref.	A	V	V	V	#	bits	deg C
	0	0.00125	4.98738E-001	9.06830E-005	0.00000E+000	5.00000E-001	-8.91772E-004	10	..........a	-327.74
	32	0.04125	4.66778E-001	5.53917E-005	0.00000E+000	4.68000E-001	-8.66772E-004	10	..........a	-327.74
	64	0.08125	4.34764E-001	4.04864E-005	0.00000E+000	4.36000E-001	-8.79272E-004	10	..........a	-327.74
	96	0.12125	4.02804E-001	3.16636E-005	0.00000E+000	4.04000E-001	-8.79272E-004	10	..........a	-327.74
	128	0.16125	3.70791E-001	2.68512E-005	0.00000E+000	3.72000E-001	-8.91772E-004	10	..........a	-327.74
	160	0.20125	3.38764E-001	1.94320E-005	0.00000E+000	3.40000E-001	-8.91772E-004	10	..........a	-327.74
	192	0.24125	3.06831E-001	1.72263E-005	0.00000E+000	3.08000E-001	-9.41772E-004	10	..........a	-327.74
	224	0.28125	2.74838E-001	1.28149E-005	0.00000E+000	2.76000E-001	-9.41772E-004	10	..........a	-327.74
	256	0.32125	2.42864E-001	1.16786E-005	0.00000E+000	2.44000E-001	-9.04272E-004	10	..........a	-327.74
	288	0.36125	2.10884E-001	1.00076E-005	0.00000E+000	2.12000E-001	-9.16772E-004	10	..........a	-327.74
	320	0.40125	1.78871E-001	7.80189E-006	0.00000E+000	1.80000E-001	-9.29272E-004	10	..........a	-327.74
	352	0.44125	1.46884E-001	4.59358E-006	0.00000E+000	1.48000E-001	-9.04272E-004	10	..........a	-327.74
	384	0.48125	1.14871E-001	3.32363E-006	0.00000E+000	1.16000E-001	-9.04272E-004	10	..........a	-327.74
	416	0.52125	8.29043E-002	1.82171E-007	0.00000E+000	8.40000E-002	-9.04272E-004	10	..........a	-327.74
	448	0.56125	5.09510E-002	-3.22665E-006	0.00000E+000	5.20000E-002	-8.54272E-004	10	..........a	-327.74
	480	0.60125	1.89377E-002	-4.56344E-006	0.00000E+000	2.00000E-002	-8.66772E-004	10	..........a	-327.74
	512	0.64125	-1.30890E-002	-5.63287E-006	0.00000E+000	-1.20000E-002	-8.04272E-004	10	..........a	-327.74
	544	0.68125	-4.50623E-002	-7.90542E-006	0.00000E+000	-4.40000E-002	-9.04272E-004	10	..........a	-327.74
	576	0.72125	-7.70490E-002	-9.24221E-006	0.00000E+000	-7.60000E-002	-8.41772E-004	10	..........a	-327.74
	608	0.76125	-1.09042E-001	-9.17537E-006	0.00000E+000	-1.08000E-001	-8.54272E-004	10	..........a	-327.74
	640	0.80125	-1.41042E-001	-1.16484E-005	0.00000E+000	-1.40000E-001	-9.04272E-004	10	..........a	-327.74
	672	0.84125	-1.73029E-001	-1.25174E-005	0.00000E+000	-1.72000E-001	-8.29272E-004	10	..........a	-327.74
	704	0.88125	-2.05016E-001	-1.31189E-005	0.00000E+000	-2.04000E-001	-8.16772E-004	10	..........a	-327.74
	736	0.92125	-2.37036E-001	-1.41215E-005	0.00000E+000	-2.36000E-001	-8.66772E-004	10	..........a	-327.74
	768	0.96125	-2.68982E-001	-1.85998E-005	0.00000E+000	-2.68000E-001	-7.41772E-004	10	..........a	-327.74
	800	1.00125	-3.00962E-001	-2.16075E-005	0.00000E+000	-3.00000E-001	-8.66772E-004	10	..........a	-327.74
	832	1.04125	-3.32922E-001	-2.70884E-005	0.00000E+000	-3.32000E-001	-7.91772E-004	10	..........a	-327.74
	864	1.08125	-3.65002E-001	-3.55102E-005	0.00000E+000	-3.64000E-001	-8.54272E-004	10	..........a	-327.74
	896	1.12125	-3.96962E-001	-4.84102E-005	0.00000E+000	-3.96000E-001	-8.79272E-004	10	..........a	-327.74
	928	1.16125	-4.28936E-001	-8.47710E-005	0.00000E+000	-4.28000E-001	-8.91772E-004	10	..........a	-327.74
	960	1.20125	-4.60916E-001	-1.67786E-004	0.00000E+000	-4.60000E-001	-8.91772E-004	10	..........a	-327.74
	992	1.24125	-4.92902E-001	-2.94380E-004	0.00000E+000	-4.92000E-001	-9.16772E-004	10	..........a	-327.74
	1024	1.28125	-5.24889E-001	-4.86945E-004	0.00000E+000	-5.24000E-001	-8.41772E-004	10	..........a	-327.74
	1056	1.32125	-5.56856E-001	-7.47151E-004	0.00000E+000	-5.56000E-001	-8.91772E-004	10	..........a	-327.74
	1088	1.36125	-5.88816E-001	-8.73946E-004	0.00000E+000	-5.88000E-001	-8.41772E-004	10	..........a	-327.74
	1120	1.40125	-6.20842E-001	-7.46282E-004	0.00000E+000	-6.20000E-001	-8.66772E-004	10	..........a	-327.74
	1152	1.44125	-6.52796E-001	-6.11668E-004	0.00000E+000	-6.52000E-001	-8.66772E-004	10	..........a	-327.74
	1184	1.48125	-6.84836E-001	-5.34267E-004	0.00000E+000	-6.84000E-001	-9.16772E-004	10	..........a	-327.74
	1216	1.52125	-7.16816E-001	-4.72507E-004	0.00000E+000	-7.16000E-001	-8.66772E-004	10	..........a	-327.74
	1248	1.56125	-7.48822E-001	-4.26321E-004	0.00000E+000	-7.48000E-001	-8.91772E-004	10	..........a	-327.74
	1280	1.60125	-7.80742E-001	-3.90629E-004	0.00000E+000	-7.80000E-001	-9.04272E-004	10	..........a	-327.74
	1312	1.64125	-8.12802E-001	-3.62824E-004	0.00000E+000	-8.12000E-001	-9.16772E-004	10	..........a	-327.74
	1344	1.68125	-8.44776E-001	-3.39697E-004	0.00000E+000	-8.44000E-001	-8.16772E-004	10	..........a	-327.74
	1376	1.72125	-8.76736E-001	-3.20180E-004	0.00000E+000	-8.76000E-001	-8.29272E-004	10	..........a	-327.74
	1408	1.76125	-9.08716E-001	-3.03671E-004	0.00000E+000	-9.08000E-001	-9.16772E-004	10	..........a	-327.74
	1440	1.80125	-9.40689E-001	-2.90236E-004	0.00000E+000	-9.40000E-001	-8.79272E-004	10	..........a	-327.74
	1472	1.84125	-9.72689E-001	-2.81079E-004	0.00000E+000	-9.72000E-001	-8.79272E-004	10	..........a	-327.74
	1504	1.88125	-9.96716E-001	-2.56482E-004	0.00000E+000	-9.96000E-001	-8.66772E-004	10	..........a	-327.74
	1536	1.92125	-9.64642E-001	-2.27674E-004	0.00000E+000	-9.64000E-001	-9.16772E-004	10	..........a	-327.74
	1568	1.96125	-9.32756E-001	-2.15777E-004	0.00000E+000	-9.32000E-001	-8.79272E-004	10	..........a	-327.74
	1600	2.00125	-9.00736E-001	-2.05283E-004	0.00000E+000	-9.00000E-001	-8.54272E-004	10	..........a	-327.74
	1632	2.04125	-8.68749E-001	-1.96861E-004	0.00000E+000	-8.68000E-001	-8.41772E-004	10	..........a	-327.74
	1664	2.08125	-8.36729E-001	-1.91046E-004	0.00000E+000	-8.36000E-001	-8.66772E-004	10	..........a	-327.74
	1696	2.12125	-8.04836E-001	-1.82758E-004	0.00000E+000	-8.04000E-001	-8.66772E-004	10	..........a	-327.74
	1728	2.16125	-7.72749E-001	-1.76074E-004	0.00000E+000	-7.72000E-001	-8.66772E-004	10	..........a	-327.74
	1760	2.20125	-7.40836E-001	-1.70192E-004	0.00000E+000	-7.40000E-001	-8.16772E-004	10	..........a	-327.74
	1792	2.24125	-7.08842E-001	-1.63174E-004	0.00000E+000	-7.08000E-001	-8.54272E-004	10	..........a	-327.74
	1824	2.28125	-6.76876E-001	-1.54886E-004	0.00000E+000	-6.76000E-001	-8.79272E-004	10	..........a	-327.74
	1856	2.32125	-6.44836E-001	-1.39178E-004	0.00000E+000	-6.44000E-001	-8.66772E-004	10	..........a	-327.74
	1888	2.36125	-6.12849E-001	-1.09034E-004	0.00000E+000	-6.12000E-001	-8.66772E-004	10	..........a	-327.74
	1920	2.40125	-5.80842E-001	-2.02039E-005	0.00000E+000	-5.80000E-001	-8.79272E-004	10	..........a	-327.74
	1952	2.44125	-5.48929E-001	1.77775E-004	0.00000E+000	-5.48000E-001	-8.79272E-004	10	..........a	-327.74
	1984	2.48125	-5.16936E-001	3.80633E-004	0.00000E+000	-5.16000E-001	-8.91772E-004	10	..........a	-327.74
	2016	2.52125	-4.84916E-001	4.80492E-004	0.00000E+000	-4.84000E-001	-9.04272E-004	10	..........a	-327.74
	2048	2.56125	-4.52842E-001	4.76682E-004	0.00000E+000	-4.52000E-001	-8.29272E-004	10	..........a	-327.74
	2080	2.60125	-4.20922E-001	4.20135E-004	0.00000E+000	-4.20000E-001	-8.91772E-004	10	..........a	-327.74
	2112	2.64125	-3.88916E-001	3.61718E-004	0.00000E+000	-3.88000E-001	-9.41772E-004	10	..........a	-327.74
	2144	2.68125	-3.57022E-001	3.20611E-004	0.00000E+000	-3.56000E-001	-8.54272E-004	10	..........a	-327.74
	2176	2.72125	-3.24969E-001	2.89999E-004	0.00000E+000	-3.24000E-001	-8.91772E-004	10	..........a	-327.74
	2208	2.76125	-2.93049E-001	2.65870E-004	0.00000E+000	-2.92000E-001	-9.41772E-004	10	..........a	-327.74
	2240	2.80125	-2.60969E-001	2.42944E-004	0.00000E+000	-2.60000E-001	-9.41772E-004	10	..........a	-327.74
	2272	2.84125	-2.28949E-001	2.22491E-004	0.00000E+000	-2.28000E-001	-9.16772E-004	10	..........a	-327.74
	2304	2.88125	-1.97036E-001	2.03375E-004	0.00000E+000	-1.96000E-001	-8.79272E-004	10	..........a	-327.74
	2336	2.92125	-1.64942E-001	1.86798E-004	0.00000E+000	-1.64000E-001	-9.29272E-004	10	..........a	-327.74
	2368	2.96125	-1.33042E-001	1.73297E-004	0.00000E+000	-1.32000E-001	-8.16772E-004	10	..........a	-327.74
	2400	3.00125	-1.01036E-001	1.63070E-004	0.00000E+000	-1.00000E-001	-8.29272E-004	10	..........a	-327.74
	2432	3.04125	-6.90690E-002	1.56721E-004	0.00000E+000	-6.80000E-002	-8.66772E-004	10	..........a	-327.74
	2464	3.08125	-3.71023E-002	1.54047E-004	0.00000E+000	-3.60000E-002	-8.66772E-004	10	..........a	-327.74
	2496	3.12125	-5.08900E-003	1.56386E-004	0.00000E+000	-4.00001E-003	-8.66772E-004	10	..........a	-327.74
	2528	3.16125	2.69243E-002	1.58525E-004	0.00000E+000	2.80000E-002	-9.16772E-004	10	..........a	-327.74
	2560	3.20125	5.89243E-002	1.57924E-004	0.00000E+000	6.00000E-002	-9.04272E-004	10	..........a	-327.74
	2592	3.24125	9.08777E-002	1.53379E-004	0.00000E+000	9.20000E-002	-9.04272E-004	10	..........a	-327.74
	2624	3.28125	1.22904E-001	1.41882E-004	0.00000E+000	1.24000E-001	-9.04272E-004	10	..........a	-327.74
	2656	3.32125	1.54898E-001	1.30854E-004	0.00000E+000	1.56000E-001	-8.79272E-004	10	..........a	-327.74
	2688	3.36125	1.86851E-001	1.21763E-004	0.00000E+000	1.88000E-001	-8.29272E-004	10	..........a	-327.74
	2720	3.40125	2.18858E-001	1.13743E-004	0.00000E+000	2.20000E-001	-9.41772E-004	10	..........a	-327.74
	2752	3.44125	2.50851E-001	1.07727E-004	0.00000E+000	2.52000E-001	-9.41772E-004	10	..........a	-327.74
	2784	3.48125	2.82784E-001	1.03383E-004	0.00000E+000	2.84000E-001	-8.66772E-004	10	..........a	-327.74
	2816	3.52125	3.14824E-001	9.99737E-005	0.00000E+000	3.16000E-001	-8.79272E-004	10	..........a	-327.74
	2848	3.56125	3.46831E-001	9.83027E-005	0.00000E+000	3.48000E-001	-9.54272E-004	10	..........a	-327.74
	2880	3.60125	3.78811E-001	9.64980E-005	0.00000E+000	3.80000E-001	-9.04272E-004	10	..........a	-327.74
	2912	3.64125	4.10784E-001	9.48939E-005	0.00000E+000	4.12000E-001	-8.66772E-004	10	..........a	-327.74
	2944	3.68125	4.42764E-001	9.30892E-005	0.00000E+000	4.44000E-001	-8.79272E-004	10	..........a	-327.74
	2976	3.72125	4.74778E-001	8.98809E-005	0.00000E+000	4.76000E-001	-9.04272E-004	10	..........a	-327.74
	3000	3.75125	4.98744E-001	8.89452E-005	0.00000E+000	5.00000E-001	-9.16772E-004	10	..........a	-327.74
CURVE2	TABLE
	Pt	T	Vf	Im	Vu	Sig	Ach	IERange	Over	Temp
	#	s	V vs. Ref.	A	V	V	V	#	bits	deg C
	3001	3.7525	4.98764E-001	8.50016E-005	0.00000E+000	5.00000E-001	-9.04272E-004	10	..........a	-327.74