File: data/02-SI/Figures_S9_S11_RDE/14btmapaq-rde/1mkcl--5mmolar14btmapaq-nitrogen-rde-600-50mvpers.DTA
EXPLAIN
TAG	LSV
TITLE	LABEL	Linear Sweep Voltammetry	Test &Identifier
DATE	LABEL	1/31/2023	Date
TIME	LABEL	13:10:01	Time
NOTES	NOTES	1	&Notes...

PSTAT	PSTAT	REF3000-21108	Potentiostat
VINIT	POTEN	3.00000E-001	F	&Initial E (V)
VFINAL	POTEN	-1.00000E+000	F	&Final E (V)
SCANRATE	QUANT	4.99999E+001	&Scan Rate (mV/s)
STEPSIZE	QUANT	1.00000E-001	St&ep Size (mV)
IMODE	SELECTOR	0	I/E Range &Mode
IRANGE	QUANT	1.00000E+002	&Max Current (mA)
AREA	QUANT	1.00000E+000	Electrode &Area (cm^2)
ELECTRODETYPE	SELECTOR	0	Electrode Type
STRIPPING	TOGGLE	F	Used for Stripping
POLARITY	TOGGLE	F	Signal Polarity
CONDIT	TWOPARAM	F	1.50000E+001	0.00000E+000	Conditionin&g	Time(s)	E(V)
DELAY	TWOPARAM	F	3.00000E+001	0.00000E+000	Init. De&lay	Time(s)	Stab.(mV/s)
EQDELAY	QUANT	0.00000E+000	Equil. &Time (s)
IRCOMP	SELECTOR	0	IRCom&p
PFCOR	QUANT	5.00000E+001	PF Corr. (ohm)
SAMPLINGMODE	SELECTOR	1	Sampling &Mode
EOC	QUANT	0	Open Circuit (V)
PSTATMODEL	IQUANT	5	Pstat Model
PSTATSECTION	LABEL	REF3000-21108	Pstat Section
PSTATSERIALNO	LABEL	21108	Pstat Serial Number
CTRLMODE	IQUANT	1	Control Mode
ELECTROMETER	IQUANT	0	RE=0 or CS=1
IESTAB	IQUANT	2	I/E Stability
CASPEED	IQUANT	4	Control Amp Speed
CONVENTION	IQUANT	1	Current Convention
ICHRANGE	IQUANT	2	Ich Range
ICHRANGEMODE	TOGGLE	F	Ich Auto Range
ICHOFFSETENABLE	TOGGLE	F	Ich Offset Enable
ICHOFFSET	QUANT	0	Ich Offset (V)
ICHFILTER	IQUANT	2	Ich Filter
VCHRANGE	IQUANT	2	Vch Range
VCHRANGEMODE	TOGGLE	T	Vch Auto Range
VCHOFFSETENABLE	TOGGLE	F	Vch Offset Enable
VCHOFFSET	QUANT	0	Vch Offset (V)
VCHFILTER	IQUANT	2	Vch Filter
ACHRANGE	IQUANT	2	Ach Range
ACHOFFSETENABLE	TOGGLE	F	Ach Offset Enable
ACHOFFSET	QUANT	0	Ach Offset (V)
ACHFILTER	IQUANT	0	Ach Filter
IERANGELOWERLIMIT	IQUANT	2	I/E Range Lower Limit
IERANGEMODE	TOGGLE	T	I/E AutoRange
IERANGE	IQUANT	11	I/E Range
POSFEEDENABLE	TOGGLE	F	Positive Feedback IR Comp
POSFEEDRESISTANCE	QUANT	0	Positive Feedback Resistance (ohm)
ACHSELECT	IQUANT	0	Ach Select
SENSECABLEID	IQUANT	14	Sense Cable ID
PWRCABLEID	IQUANT	7	Power Cable ID
DCCALDATE	LABEL	11/9/2022	DC Calibration Date
ACCALDATE	LABEL	11/9/2022	AC Calibration Date
THERMOSELECT	IQUANT	1	Thermo Select
FRAMEWORKVERSION	LABEL	7.8.2	Framework Version
INSTRUMENTVERSION	LABEL	4.40	Instrument Version
COMPLIANCEVOLTAGE	IQUANT	0	Compliance Voltage
CURVE	TABLE	13001
	Pt	T	Vf	Im	Vu	Sig	Ach	IERange	Over	Cycle	Temp
	#	s	V vs. Ref.	A	V	V	V	#	bits	#	deg C
	0	0.002	2.99763E-001	-3.21237E-005	0.00000E+000	3.00000E-001	-8.62605E-004	11	..........a	0	-327.74
	137	0.276	2.85343E-001	4.87032E-006	0.00000E+000	2.86300E-001	-9.95939E-004	8	..........a	0	-327.74
	274	0.55	2.71743E-001	2.76132E-006	0.00000E+000	2.72600E-001	-9.29272E-004	8	..........a	0	-327.74
	411	0.824	2.57797E-001	2.26553E-006	0.00000E+000	2.58900E-001	-9.29272E-004	8	..........a	0	-327.74
	548	1.098	2.44168E-001	1.94972E-006	0.00000E+000	2.45200E-001	-9.37606E-004	8	..........a	0	-327.74
	685	1.372	2.30277E-001	1.51184E-006	0.00000E+000	2.31500E-001	-9.45939E-004	8	..........a	0	-327.74
	822	1.646	2.16613E-001	1.76224E-006	0.00000E+000	2.17800E-001	-9.20939E-004	8	..........a	0	-327.74
	959	1.92	2.02906E-001	1.46893E-006	0.00000E+000	2.04100E-001	-9.87605E-004	8	..........a	0	-327.74
	1096	2.194	1.89211E-001	1.01355E-006	0.00000E+000	1.90400E-001	-9.70939E-004	8	..........a	0	-327.74
	1233	2.468	1.75531E-001	1.10895E-006	0.00000E+000	1.76700E-001	-9.37606E-004	8	..........a	0	-327.74
	1370	2.742	1.61840E-001	1.10895E-006	0.00000E+000	1.63000E-001	-9.37606E-004	8	..........a	0	-327.74
	1507	3.016	1.48150E-001	6.58990E-007	0.00000E+000	1.49300E-001	-9.70939E-004	8	..........a	0	-327.74
	1644	3.29	1.34442E-001	5.12752E-007	0.00000E+000	1.35600E-001	-9.29272E-004	8	..........a	0	-327.74
	1781	3.564	1.20735E-001	3.27767E-007	0.00000E+000	1.21900E-001	-8.54272E-004	8	..........a	0	-327.74
	1918	3.838	1.07051E-001	5.23168E-007	0.00000E+000	1.08200E-001	-9.04272E-004	8	..........a	0	-327.74
	2055	4.112	9.33464E-002	1.67363E-007	0.00000E+000	9.45000E-002	-9.54272E-004	8	..........a	0	-327.74
	2192	4.386	7.96718E-002	-2.95933E-007	0.00000E+000	8.08000E-002	-9.70939E-004	8	..........a	0	-327.74
	2329	4.66	6.60035E-002	-3.29264E-007	0.00000E+000	6.71000E-002	-8.62605E-004	8	..........a	0	-327.74
	2466	4.934	5.22701E-002	-6.78954E-009	0.00000E+000	5.34000E-002	-9.62605E-004	8	..........a	0	-327.74
	2603	5.208	3.85881E-002	-1.85109E-007	0.00000E+000	3.97000E-002	-9.04272E-004	8	..........a	0	-327.74
	2740	5.482	2.49126E-002	-3.10932E-007	0.00000E+000	2.60000E-002	-9.04272E-004	8	..........a	0	-327.74
	2877	5.756	1.11737E-002	-6.02992E-007	0.00000E+000	1.23000E-002	-9.12605E-004	8	..........a	0	-327.74
	3014	6.03	-2.51932E-003	-1.80526E-007	0.00000E+000	-1.40002E-003	-9.29272E-004	8	..........a	0	-327.74
	3151	6.304	-1.62067E-002	-7.62562E-007	0.00000E+000	-1.51000E-002	-8.54272E-004	8	..........a	0	-327.74
	3288	6.578	-2.98819E-002	-6.44238E-007	0.00000E+000	-2.88000E-002	-8.54272E-004	8	..........a	0	-327.74
	3425	6.852	-4.35686E-002	-9.13661E-008	0.00000E+000	-4.25000E-002	-9.45939E-004	8	..........a	0	-327.74
	3562	7.126	-5.72636E-002	-1.45945E-007	0.00000E+000	-5.62000E-002	-9.20939E-004	8	..........a	0	-327.74
	3699	7.4	-7.09657E-002	-5.50079E-007	0.00000E+000	-6.99000E-002	-8.62605E-004	8	..........a	0	-327.74
	3836	7.674	-8.46549E-002	-6.08825E-007	0.00000E+000	-8.36000E-002	-9.20939E-004	8	..........a	0	-327.74
	3973	7.948	-9.83428E-002	-7.44230E-007	0.00000E+000	-9.73000E-002	-9.04272E-004	8	..........a	0	-327.74
	4110	8.222	-1.12042E-001	-6.71319E-007	0.00000E+000	-1.11000E-001	-9.12605E-004	8	..........a	0	-327.74
	4247	8.496	-1.25726E-001	-5.46330E-007	0.00000E+000	-1.24700E-001	-9.04272E-004	8	..........a	0	-327.74
	4384	8.77	-1.39420E-001	-6.84652E-007	0.00000E+000	-1.38400E-001	-9.54272E-004	8	..........a	0	-327.74
	4521	9.044	-1.53121E-001	-8.81719E-007	0.00000E+000	-1.52100E-001	-9.12605E-004	8	..........a	0	-327.74
	4658	9.318	-1.66820E-001	-6.91735E-007	0.00000E+000	-1.65800E-001	-8.87605E-004	8	..........a	0	-327.74
	4795	9.592	-1.80520E-001	-8.72553E-007	0.00000E+000	-1.79500E-001	-8.79272E-004	8	..........a	0	-327.74
	4932	9.866	-1.94188E-001	-1.14253E-006	0.00000E+000	-1.93200E-001	-9.37606E-004	8	..........a	0	-327.74
	5069	10.14	-2.07892E-001	-1.26336E-006	0.00000E+000	-2.06900E-001	-8.62605E-004	8	..........a	0	-327.74
	5206	10.414	-2.21599E-001	-1.24336E-006	0.00000E+000	-2.20600E-001	-9.37606E-004	8	..........a	0	-327.74
	5343	10.688	-2.35282E-001	-1.51584E-006	0.00000E+000	-2.34300E-001	-9.79272E-004	8	..........a	0	-327.74
	5480	10.962	-2.48971E-001	-1.42334E-006	0.00000E+000	-2.48000E-001	-9.37606E-004	8	..........a	0	-327.74
	5617	11.236	-2.62656E-001	-9.91294E-007	0.00000E+000	-2.61700E-001	-9.29272E-004	8	..........a	0	-327.74
	5754	11.51	-2.76236E-001	-1.62208E-006	0.00000E+000	-2.75400E-001	-9.45939E-004	8	..........a	0	-327.74
	5891	11.784	-2.89894E-001	-1.50417E-006	0.00000E+000	-2.89100E-001	-8.79272E-004	8	..........a	0	-327.74
	6028	12.058	-3.03586E-001	-1.68041E-006	0.00000E+000	-3.02800E-001	-9.54272E-004	8	..........a	0	-327.74
	6165	12.332	-3.17207E-001	-1.95247E-006	0.00000E+000	-3.16500E-001	-9.37606E-004	8	..........a	0	-327.74
	6302	12.606	-3.31136E-001	-2.56658E-006	0.00000E+000	-3.30200E-001	-9.12605E-004	8	..........a	0	-327.74
	6439	12.88	-3.44723E-001	-3.69566E-006	0.00000E+000	-3.43900E-001	-9.29272E-004	8	..........a	0	-327.74
	6576	13.154	-3.58419E-001	-4.89973E-006	0.00000E+000	-3.57600E-001	-9.87605E-004	8	..........a	0	-327.74
	6713	13.428	-3.72215E-001	-7.28370E-006	0.00000E+000	-3.71300E-001	-9.62605E-004	8	..........a	0	-327.74
	6850	13.702	-3.85748E-001	-1.07172E-005	0.00000E+000	-3.85000E-001	-1.00427E-003	8	..........a	0	-327.74
	6987	13.976	-3.99532E-001	-1.57239E-005	0.00000E+000	-3.98700E-001	-9.62605E-004	8	..........a	0	-327.74
	7124	14.25	-4.13169E-001	-2.30387E-005	0.00000E+000	-4.12400E-001	-1.00427E-003	8	..........a	0	-327.74
	7261	14.524	-4.26911E-001	-3.30483E-005	0.00000E+000	-4.26100E-001	-9.95939E-004	8	..........a	0	-327.74
	7398	14.798	-4.40469E-001	-4.54656E-005	0.00000E+000	-4.39800E-001	-9.37606E-004	8	..........a	0	-327.74
	7535	15.072	-4.54311E-001	-6.30038E-005	0.00000E+000	-4.53500E-001	-9.79272E-004	8	..........a	0	-327.74
	7672	15.346	-4.67907E-001	-8.25497E-005	0.00000E+000	-4.67200E-001	-9.20939E-004	8	..........a	0	-327.74
	7809	15.62	-4.81565E-001	-1.08164E-004	0.00000E+000	-4.80900E-001	-9.54272E-004	8	..........a	0	-327.74
	7946	15.894	-4.95219E-001	-1.38416E-004	0.00000E+000	-4.94600E-001	-9.62605E-004	8	..........a	0	-327.74
	8083	16.168	-5.08865E-001	-1.75699E-004	0.00000E+000	-5.08300E-001	-9.29272E-004	8	..........a	0	-327.74
	8220	16.442	-5.22444E-001	-2.20163E-004	0.00000E+000	-5.22000E-001	-9.62605E-004	8	..........a	0	-327.74
	8357	16.716	-5.36329E-001	-2.71988E-004	0.00000E+000	-5.35700E-001	-8.95939E-004	9	..........a	0	-327.74
	8494	16.99	-5.50012E-001	-3.16850E-004	0.00000E+000	-5.49400E-001	-9.54272E-004	9	..........a	0	-327.74
	8631	17.264	-5.63667E-001	-3.51964E-004	0.00000E+000	-5.63100E-001	-8.95939E-004	9	..........a	0	-327.74
	8768	17.538	-5.77512E-001	-3.72552E-004	0.00000E+000	-5.76800E-001	-9.04272E-004	9	..........a	0	-327.74
	8905	17.812	-5.91154E-001	-3.81039E-004	0.00000E+000	-5.90500E-001	-8.37606E-004	9	..........a	0	-327.74
	9042	18.086	-6.04904E-001	-3.85498E-004	0.00000E+000	-6.04200E-001	-9.37606E-004	9	..........a	0	-327.74
	9179	18.36	-6.18404E-001	-3.90274E-004	0.00000E+000	-6.17900E-001	-9.04272E-004	9	..........a	0	-327.74
	9316	18.634	-6.32254E-001	-3.91812E-004	0.00000E+000	-6.31600E-001	-8.29272E-004	9	..........a	0	-327.74
	9453	18.908	-6.45817E-001	-3.91749E-004	0.00000E+000	-6.45300E-001	-8.70939E-004	9	..........a	0	-327.74
	9590	19.182	-6.59671E-001	-3.92434E-004	0.00000E+000	-6.59000E-001	-8.70939E-004	9	..........a	0	-327.74
	9727	19.456	-6.73362E-001	-3.91908E-004	0.00000E+000	-6.72700E-001	-9.04272E-004	9	..........a	0	-327.74
	9864	19.73	-6.87021E-001	-3.91318E-004	0.00000E+000	-6.86400E-001	-9.37606E-004	9	..........a	0	-327.74
	10001	20.004	-7.00729E-001	-3.91899E-004	0.00000E+000	-7.00100E-001	-9.29272E-004	9	..........a	0	-327.74
	10138	20.278	-7.14417E-001	-3.93353E-004	0.00000E+000	-7.13800E-001	-8.45939E-004	9	..........a	0	-327.74
	10275	20.552	-7.27979E-001	-3.92568E-004	0.00000E+000	-7.27500E-001	-8.87605E-004	9	..........a	0	-327.74
	10412	20.826	-7.41712E-001	-3.90838E-004	0.00000E+000	-7.41200E-001	-9.12605E-004	9	..........a	0	-327.74
	10549	21.1	-7.55542E-001	-3.92158E-004	0.00000E+000	-7.54900E-001	-9.20939E-004	9	..........a	0	-327.74
	10686	21.374	-7.69021E-001	-3.93220E-004	0.00000E+000	-7.68600E-001	-8.95939E-004	9	..........a	0	-327.74
	10823	21.648	-7.82929E-001	-3.90328E-004	0.00000E+000	-7.82300E-001	-9.20939E-004	9	..........a	0	-327.74
	10960	21.922	-7.96629E-001	-3.92254E-004	0.00000E+000	-7.96000E-001	-9.04272E-004	9	..........a	0	-327.74
	11097	22.196	-8.10312E-001	-3.91820E-004	0.00000E+000	-8.09700E-001	-9.29272E-004	9	..........a	0	-327.74
	11234	22.47	-8.23958E-001	-3.93433E-004	0.00000E+000	-8.23400E-001	-9.04272E-004	9	..........a	0	-327.74
	11371	22.744	-8.37608E-001	-3.92426E-004	0.00000E+000	-8.37100E-001	-8.79272E-004	9	..........a	0	-327.74
	11508	23.018	-8.51221E-001	-3.93032E-004	0.00000E+000	-8.50800E-001	-9.37606E-004	9	..........a	0	-327.74
	11645	23.292	-8.65021E-001	-3.92593E-004	0.00000E+000	-8.64500E-001	-8.95939E-004	9	..........a	0	-327.74
	11782	23.566	-8.78721E-001	-3.92710E-004	0.00000E+000	-8.78200E-001	-8.62605E-004	9	..........a	0	-327.74
	11919	23.84	-8.92371E-001	-3.90587E-004	0.00000E+000	-8.91900E-001	-9.12605E-004	9	..........a	0	-327.74
	12056	24.114	-9.05971E-001	-3.92915E-004	0.00000E+000	-9.05600E-001	-8.95939E-004	9	..........a	0	-327.74
	12193	24.388	-9.19896E-001	-3.94519E-004	0.00000E+000	-9.19300E-001	-9.54272E-004	9	..........a	0	-327.74
	12330	24.662	-9.33417E-001	-3.94799E-004	0.00000E+000	-9.33000E-001	-9.20939E-004	9	..........a	0	-327.74
	12467	24.936	-9.47175E-001	-3.92087E-004	0.00000E+000	-9.46700E-001	-9.45939E-004	9	..........a	0	-327.74
	12604	25.21	-9.60917E-001	-3.91824E-004	0.00000E+000	-9.60400E-001	-9.45939E-004	9	..........a	0	-327.74
	12741	25.484	-9.74479E-001	-3.91465E-004	0.00000E+000	-9.74100E-001	-9.45939E-004	9	..........a	0	-327.74
	12878	25.758	-9.88300E-001	-3.91135E-004	0.00000E+000	-9.87800E-001	-9.54272E-004	9	..........a	0	-327.74
	13000	26.002	-1.00033E+000	-3.93023E-004	0.00000E+000	-1.00000E+000	-8.37606E-004	9	..........a	0	-327.74