File: data/02-SI/Figures_S9_S11_RDE/14btmapaq-rde/1mkcl-5mmolar14btmapaq-nitrogen-200mvpers.DTA
EXPLAIN
TAG	CV
TITLE	LABEL	Cyclic Voltammetry	Test &Identifier
DATE	LABEL	1/31/2023	Date
TIME	LABEL	14:02:00	Time
NOTES	NOTES	1	&Notes...

PSTAT	PSTAT	REF3000-21108	Potentiostat
VINIT	POTEN	5.00000E-001	F	Initial &E (V)
VLIMIT1	POTEN	-1.00000E+000	F	Scan Limit &1 (V)
VLIMIT2	POTEN	5.00000E-001	F	Scan Limit &2 (V)
VFINAL	POTEN	5.00000E-001	F	Final &E (V)
SCANRATE	QUANT	2.00000E+002	&Scan Rate (mV/s)
STEPSIZE	QUANT	1.00000E+000	St&ep Size (mV)
CYCLES	IQUANT	1	C&ycles (#)
IMODE	SELECTOR	1	I/E Range &Mode
IRANGE	QUANT	1.00000E+001	&Max Current (mA)
AREA	QUANT	1.00000E+000	Electrode &Area (cm^2)
ELECTRODETYPE	SELECTOR	0	Electrode Type
STRIPPING	TOGGLE	F	Used for Stripping
POLARITY	TOGGLE	F	Signal Polarity
CONDIT	TWOPARAM	F	1.50000E+001	0.00000E+000	Conditionin&g	Time(s)	E(V)
DELAY	TWOPARAM	F	5.00000E+000	0.00000E+000	Init. De&lay	Time(s)	Stab.(mV/s)
EQDELAY	QUANT	0.00000E+000	Equil. &Time (s)
IRCOMP	SELECTOR	0	IRCom&p
PFCOR	QUANT	5.00000E+001	PF Corr. (ohm)
SAMPLINGMODE	SELECTOR	1	Sampling &Mode
EOC	QUANT	0	Open Circuit (V)
PSTATMODEL	IQUANT	5	Pstat Model
PSTATSECTION	LABEL	REF3000-21108	Pstat Section
PSTATSERIALNO	LABEL	21108	Pstat Serial Number
CTRLMODE	IQUANT	1	Control Mode
ELECTROMETER	IQUANT	0	RE=0 or CS=1
IESTAB	IQUANT	2	I/E Stability
CASPEED	IQUANT	4	Control Amp Speed
CONVENTION	IQUANT	1	Current Convention
ICHRANGE	IQUANT	2	Ich Range
ICHRANGEMODE	TOGGLE	F	Ich Auto Range
ICHOFFSETENABLE	TOGGLE	F	Ich Offset Enable
ICHOFFSET	QUANT	0	Ich Offset (V)
ICHFILTER	IQUANT	2	Ich Filter
VCHRANGE	IQUANT	2	Vch Range
VCHRANGEMODE	TOGGLE	F	Vch Auto Range
VCHOFFSETENABLE	TOGGLE	F	Vch Offset Enable
VCHOFFSET	QUANT	0	Vch Offset (V)
VCHFILTER	IQUANT	2	Vch Filter
ACHRANGE	IQUANT	2	Ach Range
ACHOFFSETENABLE	TOGGLE	F	Ach Offset Enable
ACHOFFSET	QUANT	0	Ach Offset (V)
ACHFILTER	IQUANT	0	Ach Filter
IERANGELOWERLIMIT	IQUANT	2	I/E Range Lower Limit
IERANGEMODE	TOGGLE	F	I/E AutoRange
IERANGE	IQUANT	10	I/E Range
POSFEEDENABLE	TOGGLE	F	Positive Feedback IR Comp
POSFEEDRESISTANCE	QUANT	0	Positive Feedback Resistance (ohm)
ACHSELECT	IQUANT	0	Ach Select
SENSECABLEID	IQUANT	14	Sense Cable ID
PWRCABLEID	IQUANT	7	Power Cable ID
DCCALDATE	LABEL	11/9/2022	DC Calibration Date
ACCALDATE	LABEL	11/9/2022	AC Calibration Date
THERMOSELECT	IQUANT	1	Thermo Select
FRAMEWORKVERSION	LABEL	7.8.2	Framework Version
INSTRUMENTVERSION	LABEL	4.40	Instrument Version
COMPLIANCEVOLTAGE	IQUANT	0	Compliance Voltage
CURVE1	TABLE
	Pt	T	Vf	Im	Vu	Sig	Ach	IERange	Over	Temp
	#	s	V vs. Ref.	A	V	V	V	#	bits	deg C
	0	0.005	4.98833E-001	6.57745E-005	0.00000E+000	5.00000E-001	-7.95939E-004	10	..........a	-327.74
	31	0.16	4.67824E-001	2.58880E-005	0.00000E+000	4.69000E-001	-7.99272E-004	10	..........a	-327.74
	62	0.315	4.36814E-001	1.79340E-005	0.00000E+000	4.38000E-001	-7.99272E-004	10	..........a	-327.74
	93	0.47	4.05931E-001	1.40072E-005	0.00000E+000	4.07000E-001	-8.09272E-004	10	..........a	-327.74
	124	0.625	3.74849E-001	1.15342E-005	0.00000E+000	3.76000E-001	-8.22606E-004	10	..........a	-327.74
	155	0.78	3.43889E-001	9.72948E-006	0.00000E+000	3.45000E-001	-7.29272E-004	10	..........a	-327.74
	186	0.935	3.12888E-001	7.62403E-006	0.00000E+000	3.14000E-001	-8.42605E-004	10	..........a	-327.74
	217	1.09	2.81909E-001	6.90551E-006	0.00000E+000	2.83000E-001	-8.52606E-004	10	..........a	-327.74
	248	1.245	2.50903E-001	6.03659E-006	0.00000E+000	2.52000E-001	-7.92605E-004	10	..........a	-327.74
	279	1.4	2.19853E-001	5.18439E-006	0.00000E+000	2.21000E-001	-8.19272E-004	10	..........a	-327.74
	310	1.555	1.88913E-001	4.78335E-006	0.00000E+000	1.90000E-001	-8.05939E-004	10	..........a	-327.74
	341	1.71	1.57971E-001	3.86431E-006	0.00000E+000	1.59000E-001	-8.29272E-004	10	..........a	-327.74
	372	1.865	1.26921E-001	3.31288E-006	0.00000E+000	1.28000E-001	-8.02606E-004	10	..........a	-327.74
	403	2.02	9.60127E-002	2.61106E-006	0.00000E+000	9.70000E-002	-8.42605E-004	10	..........a	-327.74
	434	2.175	6.51177E-002	2.09306E-006	0.00000E+000	6.60000E-002	-8.45939E-004	10	..........a	-327.74
	465	2.33	3.40244E-002	1.70873E-006	0.00000E+000	3.50000E-002	-8.19272E-004	10	..........a	-327.74
	496	2.485	3.03273E-003	1.04033E-006	0.00000E+000	4.00001E-003	-8.12605E-004	10	..........a	-327.74
	527	2.64	-2.79556E-002	2.38258E-007	0.00000E+000	-2.70000E-002	-8.45939E-004	10	..........a	-327.74
	558	2.795	-5.89723E-002	2.38258E-007	0.00000E+000	-5.80000E-002	-8.55939E-004	10	..........a	-327.74
	589	2.95	-8.99689E-002	-6.47367E-007	0.00000E+000	-8.90000E-002	-8.12605E-004	10	..........a	-327.74
	620	3.105	-1.20952E-001	-9.14725E-007	0.00000E+000	-1.20000E-001	-8.49272E-004	10	..........a	-327.74
	651	3.26	-1.51951E-001	-1.33247E-006	0.00000E+000	-1.51000E-001	-8.12605E-004	10	..........a	-327.74
	682	3.415	-1.82867E-001	-1.61654E-006	0.00000E+000	-1.82000E-001	-7.62605E-004	10	..........a	-327.74
	713	3.57	-2.13922E-001	-2.11784E-006	0.00000E+000	-2.13000E-001	-7.92605E-004	10	..........a	-327.74
	744	3.725	-2.44857E-001	-3.03688E-006	0.00000E+000	-2.44000E-001	-7.82606E-004	10	..........a	-327.74
	775	3.88	-2.75884E-001	-4.07290E-006	0.00000E+000	-2.75000E-001	-7.92605E-004	10	..........a	-327.74
	806	4.035	-3.06886E-001	-4.67445E-006	0.00000E+000	-3.06000E-001	-8.02606E-004	10	..........a	-327.74
	837	4.19	-3.37846E-001	-5.71047E-006	0.00000E+000	-3.37000E-001	-7.45939E-004	10	..........a	-327.74
	868	4.345	-3.68829E-001	-8.16682E-006	0.00000E+000	-3.68000E-001	-7.99272E-004	10	..........a	-327.74
	899	4.5	-3.99837E-001	-1.51014E-005	0.00000E+000	-3.99000E-001	-7.72606E-004	10	..........a	-327.74
	930	4.655	-4.30844E-001	-3.62395E-005	0.00000E+000	-4.30000E-001	-8.19272E-004	10	..........a	-327.74
	961	4.81	-4.61841E-001	-8.13395E-005	0.00000E+000	-4.61000E-001	-8.15939E-004	10	..........a	-327.74
	992	4.965	-4.92807E-001	-1.53860E-004	0.00000E+000	-4.92000E-001	-7.89272E-004	10	..........a	-327.74
	1023	5.12	-5.23802E-001	-2.63895E-004	0.00000E+000	-5.23000E-001	-7.45939E-004	10	..........a	-327.74
	1054	5.275	-5.54774E-001	-3.95736E-004	0.00000E+000	-5.54000E-001	-7.95939E-004	10	..........a	-327.74
	1085	5.43	-5.85801E-001	-4.18495E-004	0.00000E+000	-5.85000E-001	-7.72606E-004	10	..........a	-327.74
	1116	5.585	-6.16699E-001	-3.37636E-004	0.00000E+000	-6.16000E-001	-7.79272E-004	10	..........a	-327.74
	1147	5.74	-6.47734E-001	-2.80221E-004	0.00000E+000	-6.47000E-001	-7.52606E-004	10	..........a	-327.74
	1178	5.895	-6.78731E-001	-2.45280E-004	0.00000E+000	-6.78000E-001	-7.49272E-004	10	..........a	-327.74
	1209	6.05	-7.09751E-001	-2.19196E-004	0.00000E+000	-7.09000E-001	-7.72606E-004	10	..........a	-327.74
	1240	6.205	-7.40721E-001	-1.99829E-004	0.00000E+000	-7.40000E-001	-7.69272E-004	10	..........a	-327.74
	1271	6.36	-7.71647E-001	-1.84891E-004	0.00000E+000	-7.71000E-001	-7.75939E-004	10	..........a	-327.74
	1302	6.515	-8.02736E-001	-1.72241E-004	0.00000E+000	-8.02000E-001	-8.02606E-004	10	..........a	-327.74
	1333	6.67	-8.33601E-001	-1.61864E-004	0.00000E+000	-8.33000E-001	-7.45939E-004	10	..........a	-327.74
	1364	6.825	-8.64587E-001	-1.53994E-004	0.00000E+000	-8.64000E-001	-7.85939E-004	10	..........a	-327.74
	1395	6.98	-8.95621E-001	-1.46792E-004	0.00000E+000	-8.95000E-001	-7.85939E-004	10	..........a	-327.74
	1426	7.135	-9.26646E-001	-1.40660E-004	0.00000E+000	-9.26000E-001	-7.85939E-004	10	..........a	-327.74
	1457	7.29	-9.57557E-001	-1.35881E-004	0.00000E+000	-9.57000E-001	-7.65939E-004	10	..........a	-327.74
	1488	7.445	-9.88566E-001	-1.31569E-004	0.00000E+000	-9.88000E-001	-7.62605E-004	10	..........a	-327.74
	1519	7.6	-9.81574E-001	-1.20340E-004	0.00000E+000	-9.81000E-001	-7.62605E-004	10	..........a	-327.74
	1550	7.755	-9.50589E-001	-1.13640E-004	0.00000E+000	-9.50000E-001	-7.62605E-004	10	..........a	-327.74
	1581	7.91	-9.19597E-001	-1.08978E-004	0.00000E+000	-9.19000E-001	-7.72606E-004	10	..........a	-327.74
	1612	8.065	-8.88587E-001	-1.05452E-004	0.00000E+000	-8.88000E-001	-7.72606E-004	10	..........a	-327.74
	1643	8.22	-8.57594E-001	-1.01926E-004	0.00000E+000	-8.57000E-001	-7.55939E-004	10	..........a	-327.74
	1674	8.375	-8.26649E-001	-9.85507E-005	0.00000E+000	-8.26000E-001	-7.55939E-004	10	..........a	-327.74
	1705	8.53	-7.95664E-001	-9.60776E-005	0.00000E+000	-7.95000E-001	-7.75939E-004	10	..........a	-327.74
	1736	8.685	-7.64741E-001	-9.32035E-005	0.00000E+000	-7.64000E-001	-7.49272E-004	10	..........a	-327.74
	1767	8.84	-7.33716E-001	-9.01456E-005	0.00000E+000	-7.33000E-001	-7.59272E-004	10	..........a	-327.74
	1798	8.995	-7.02699E-001	-8.71879E-005	0.00000E+000	-7.02000E-001	-7.75939E-004	10	..........a	-327.74
	1829	9.15	-6.71756E-001	-8.33112E-005	0.00000E+000	-6.71000E-001	-7.15939E-004	10	..........a	-327.74
	1860	9.305	-6.40709E-001	-7.73792E-005	0.00000E+000	-6.40000E-001	-7.49272E-004	10	..........a	-327.74
	1891	9.46	-6.09791E-001	-6.47131E-005	0.00000E+000	-6.09000E-001	-7.85939E-004	10	..........a	-327.74
	1922	9.615	-5.78772E-001	-1.49510E-005	0.00000E+000	-5.78000E-001	-8.09272E-004	10	..........a	-327.74
	1953	9.77	-5.47717E-001	1.11626E-004	0.00000E+000	-5.47000E-001	-8.62605E-004	10	..........a	-327.74
	1984	9.925	-5.16786E-001	2.25889E-004	0.00000E+000	-5.16000E-001	-8.09272E-004	10	..........a	-327.74
	2015	10.08	-4.85844E-001	2.63018E-004	0.00000E+000	-4.85000E-001	-8.15939E-004	10	..........a	-327.74
	2046	10.235	-4.54829E-001	2.44721E-004	0.00000E+000	-4.54000E-001	-7.92605E-004	10	..........a	-327.74
	2077	10.39	-4.23822E-001	2.06773E-004	0.00000E+000	-4.23000E-001	-7.79272E-004	10	..........a	-327.74
	2108	10.545	-3.92904E-001	1.73988E-004	0.00000E+000	-3.92000E-001	-8.05939E-004	10	..........a	-327.74
	2139	10.7	-3.61899E-001	1.49608E-004	0.00000E+000	-3.61000E-001	-8.02606E-004	10	..........a	-327.74
	2170	10.855	-3.30912E-001	1.32898E-004	0.00000E+000	-3.30000E-001	-7.99272E-004	10	..........a	-327.74
	2201	11.01	-2.99857E-001	1.19062E-004	0.00000E+000	-2.99000E-001	-7.99272E-004	10	..........a	-327.74
	2232	11.165	-2.68874E-001	1.09020E-004	0.00000E+000	-2.68000E-001	-7.79272E-004	10	..........a	-327.74
	2263	11.32	-2.37884E-001	9.93447E-005	0.00000E+000	-2.37000E-001	-7.82606E-004	10	..........a	-327.74
	2294	11.475	-2.06887E-001	9.09563E-005	0.00000E+000	-2.06000E-001	-7.82606E-004	10	..........a	-327.74
	2325	11.63	-1.75974E-001	8.37042E-005	0.00000E+000	-1.75000E-001	-8.15939E-004	10	..........a	-327.74
	2356	11.785	-1.45011E-001	7.72876E-005	0.00000E+000	-1.44000E-001	-7.65939E-004	10	..........a	-327.74
	2387	11.94	-1.13909E-001	7.14391E-005	0.00000E+000	-1.13000E-001	-8.09272E-004	10	..........a	-327.74
	2418	12.095	-8.29756E-002	6.76627E-005	0.00000E+000	-8.20000E-002	-8.22606E-004	10	..........a	-327.74
	2449	12.25	-5.19406E-002	6.44711E-005	0.00000E+000	-5.10000E-002	-8.32606E-004	10	..........a	-327.74
	2480	12.405	-2.10489E-002	6.16806E-005	0.00000E+000	-2.00000E-002	-8.02606E-004	10	..........a	-327.74
	2511	12.56	1.00144E-002	5.96420E-005	0.00000E+000	1.10000E-002	-7.95939E-004	10	..........a	-327.74
	2542	12.715	4.10761E-002	5.74195E-005	0.00000E+000	4.20000E-002	-7.99272E-004	10	..........a	-327.74
	2573	12.87	7.20061E-002	5.42781E-005	0.00000E+000	7.30000E-002	-8.09272E-004	10	..........a	-327.74
	2604	13.025	1.02926E-001	5.21225E-005	0.00000E+000	1.04000E-001	-8.19272E-004	10	..........a	-327.74
	2635	13.18	1.33994E-001	4.91983E-005	0.00000E+000	1.35000E-001	-8.19272E-004	10	..........a	-327.74
	2666	13.335	1.64976E-001	4.63075E-005	0.00000E+000	1.66000E-001	-8.09272E-004	10	..........a	-327.74
	2697	13.49	1.95874E-001	4.40349E-005	0.00000E+000	1.97000E-001	-7.89272E-004	10	..........a	-327.74
	2728	13.645	2.26924E-001	4.19295E-005	0.00000E+000	2.28000E-001	-7.75939E-004	10	..........a	-327.74
	2759	13.8	2.57839E-001	4.02585E-005	0.00000E+000	2.59000E-001	-7.75939E-004	10	..........a	-327.74
	2790	13.955	2.88921E-001	3.88214E-005	0.00000E+000	2.90000E-001	-7.85939E-004	10	..........a	-327.74
	2821	14.11	3.19881E-001	3.80695E-005	0.00000E+000	3.21000E-001	-8.15939E-004	10	..........a	-327.74
	2852	14.265	3.50861E-001	3.78021E-005	0.00000E+000	3.52000E-001	-7.99272E-004	10	..........a	-327.74
	2883	14.42	3.81894E-001	3.68664E-005	0.00000E+000	3.83000E-001	-7.89272E-004	10	..........a	-327.74
	2914	14.575	4.12834E-001	3.61645E-005	0.00000E+000	4.14000E-001	-8.55939E-004	10	..........a	-327.74
	2945	14.73	4.43828E-001	3.47776E-005	0.00000E+000	4.45000E-001	-8.32606E-004	10	..........a	-327.74
	2976	14.885	4.74869E-001	3.37750E-005	0.00000E+000	4.76000E-001	-7.85939E-004	10	..........a	-327.74
	3000	15.005	4.98834E-001	3.28727E-005	0.00000E+000	5.00000E-001	-8.09272E-004	10	..........a	-327.74
CURVE2	TABLE
	Pt	T	Vf	Im	Vu	Sig	Ach	IERange	Over	Temp
	#	s	V vs. Ref.	A	V	V	V	#	bits	deg C
	3001	15.01	4.98828E-001	3.22043E-005	0.00000E+000	5.00000E-001	-8.75939E-004	10	..........a	-327.74