File: data/02-SI/Figures_S9_S11_RDE/14btmapaq-rde/1mkcl-5mmolar14btmapaq-nitrogen-8000mvpers.DTA
EXPLAIN
TAG	CV
TITLE	LABEL	Cyclic Voltammetry	Test &Identifier
DATE	LABEL	1/31/2023	Date
TIME	LABEL	14:06:21	Time
NOTES	NOTES	1	&Notes...

PSTAT	PSTAT	REF3000-21108	Potentiostat
VINIT	POTEN	5.00000E-001	F	Initial &E (V)
VLIMIT1	POTEN	-1.00000E+000	F	Scan Limit &1 (V)
VLIMIT2	POTEN	5.00000E-001	F	Scan Limit &2 (V)
VFINAL	POTEN	5.00000E-001	F	Final &E (V)
SCANRATE	QUANT	8.57141E+003	&Scan Rate (mV/s)
STEPSIZE	QUANT	1.00000E+000	St&ep Size (mV)
CYCLES	IQUANT	1	C&ycles (#)
IMODE	SELECTOR	1	I/E Range &Mode
IRANGE	QUANT	1.00000E+001	&Max Current (mA)
AREA	QUANT	1.00000E+000	Electrode &Area (cm^2)
ELECTRODETYPE	SELECTOR	0	Electrode Type
STRIPPING	TOGGLE	F	Used for Stripping
POLARITY	TOGGLE	F	Signal Polarity
CONDIT	TWOPARAM	F	1.50000E+001	0.00000E+000	Conditionin&g	Time(s)	E(V)
DELAY	TWOPARAM	F	5.00000E+000	0.00000E+000	Init. De&lay	Time(s)	Stab.(mV/s)
EQDELAY	QUANT	0.00000E+000	Equil. &Time (s)
IRCOMP	SELECTOR	0	IRCom&p
PFCOR	QUANT	5.00000E+001	PF Corr. (ohm)
SAMPLINGMODE	SELECTOR	1	Sampling &Mode
EOC	QUANT	0	Open Circuit (V)
PSTATMODEL	IQUANT	5	Pstat Model
PSTATSECTION	LABEL	REF3000-21108	Pstat Section
PSTATSERIALNO	LABEL	21108	Pstat Serial Number
CTRLMODE	IQUANT	1	Control Mode
ELECTROMETER	IQUANT	0	RE=0 or CS=1
IESTAB	IQUANT	2	I/E Stability
CASPEED	IQUANT	4	Control Amp Speed
CONVENTION	IQUANT	1	Current Convention
ICHRANGE	IQUANT	2	Ich Range
ICHRANGEMODE	TOGGLE	F	Ich Auto Range
ICHOFFSETENABLE	TOGGLE	F	Ich Offset Enable
ICHOFFSET	QUANT	0	Ich Offset (V)
ICHFILTER	IQUANT	1	Ich Filter
VCHRANGE	IQUANT	2	Vch Range
VCHRANGEMODE	TOGGLE	F	Vch Auto Range
VCHOFFSETENABLE	TOGGLE	F	Vch Offset Enable
VCHOFFSET	QUANT	0	Vch Offset (V)
VCHFILTER	IQUANT	1	Vch Filter
ACHRANGE	IQUANT	2	Ach Range
ACHOFFSETENABLE	TOGGLE	F	Ach Offset Enable
ACHOFFSET	QUANT	0	Ach Offset (V)
ACHFILTER	IQUANT	0	Ach Filter
IERANGELOWERLIMIT	IQUANT	2	I/E Range Lower Limit
IERANGEMODE	TOGGLE	F	I/E AutoRange
IERANGE	IQUANT	10	I/E Range
POSFEEDENABLE	TOGGLE	F	Positive Feedback IR Comp
POSFEEDRESISTANCE	QUANT	0	Positive Feedback Resistance (ohm)
ACHSELECT	IQUANT	0	Ach Select
SENSECABLEID	IQUANT	14	Sense Cable ID
PWRCABLEID	IQUANT	7	Power Cable ID
DCCALDATE	LABEL	11/9/2022	DC Calibration Date
ACCALDATE	LABEL	11/9/2022	AC Calibration Date
THERMOSELECT	IQUANT	1	Thermo Select
FRAMEWORKVERSION	LABEL	7.8.2	Framework Version
INSTRUMENTVERSION	LABEL	4.40	Instrument Version
COMPLIANCEVOLTAGE	IQUANT	0	Compliance Voltage
CURVE1	TABLE
	Pt	T	Vf	Im	Vu	Sig	Ach	IERange	Over	Temp
	#	s	V vs. Ref.	A	V	V	V	#	bits	deg C
	0	0.000117	4.98691E-001	4.01523E-005	0.00000E+000	5.00000E-001	-9.29272E-004	10	...........	-0.07
	34	0.004083	4.66891E-001	-1.14247E-004	0.00000E+000	4.68250E-001	-7.29272E-004	10	...........	-0.07
	68	0.00805	4.35291E-001	-1.22268E-004	0.00000E+000	4.36550E-001	-9.29272E-004	10	...........	-0.07
	102	0.012017	4.03491E-001	-1.42320E-004	0.00000E+000	4.04800E-001	-8.29272E-004	10	...........	-0.07
	136	0.015983	3.71591E-001	-1.49338E-004	0.00000E+000	3.73050E-001	-7.29272E-004	10	...........	-0.07
	170	0.01995	3.40091E-001	-1.56356E-004	0.00000E+000	3.41350E-001	-7.29272E-004	10	...........	-0.07
	204	0.023917	3.08291E-001	-1.68387E-004	0.00000E+000	3.09600E-001	-9.29272E-004	10	...........	-0.07
	238	0.027883	2.76591E-001	-1.82424E-004	0.00000E+000	2.77850E-001	-7.29272E-004	10	...........	-0.07
	272	0.03185	2.44891E-001	-1.88439E-004	0.00000E+000	2.46150E-001	-8.29272E-004	10	...........	-0.07
	306	0.035817	2.13091E-001	-1.96460E-004	0.00000E+000	2.14400E-001	-9.29272E-004	10	...........	-0.07
	340	0.039783	1.81191E-001	-2.04481E-004	0.00000E+000	1.82650E-001	-8.29272E-004	10	...........	-0.07
	374	0.04375	1.49791E-001	-2.08491E-004	0.00000E+000	1.50950E-001	-9.29272E-004	10	...........	-0.07
	408	0.047717	1.18091E-001	-2.12501E-004	0.00000E+000	1.19200E-001	-9.29272E-004	10	...........	-0.07
	442	0.051683	8.63910E-002	-2.15509E-004	0.00000E+000	8.74500E-002	-9.29272E-004	10	...........	-0.07
	476	0.05565	5.44910E-002	-2.14507E-004	0.00000E+000	5.57500E-002	-8.29272E-004	10	...........	-0.07
	510	0.059617	2.27910E-002	-2.17514E-004	0.00000E+000	2.40000E-002	-9.29272E-004	10	...........	-0.07
	544	0.063583	-9.10900E-003	-2.18517E-004	0.00000E+000	-7.75000E-003	-8.29272E-004	10	...........	-0.07
	578	0.06755	-4.05090E-002	-2.13504E-004	0.00000E+000	-3.94500E-002	-8.29272E-004	10	...........	-0.07
	612	0.071517	-7.20090E-002	-2.18517E-004	0.00000E+000	-7.12000E-002	-7.29272E-004	10	...........	-0.07
	646	0.075483	-1.03909E-001	-2.12501E-004	0.00000E+000	-1.02950E-001	-8.29272E-004	10	...........	-0.07
	680	0.07945	-1.35609E-001	-2.06486E-004	0.00000E+000	-1.34650E-001	-7.29272E-004	10	...........	-0.07
	714	0.083417	-1.67609E-001	-2.13504E-004	0.00000E+000	-1.66400E-001	-9.29272E-004	10	...........	-0.07
	748	0.087383	-1.99209E-001	-2.16512E-004	0.00000E+000	-1.98150E-001	-7.29272E-004	10	...........	-0.07
	782	0.09135	-2.30909E-001	-2.08491E-004	0.00000E+000	-2.29850E-001	-7.29272E-004	10	...........	-0.07
	816	0.095317	-2.62709E-001	-2.18517E-004	0.00000E+000	-2.61600E-001	-7.29272E-004	10	...........	-0.07
	850	0.099283	-2.94409E-001	-2.27540E-004	0.00000E+000	-2.93350E-001	-6.29272E-004	10	...........	-0.07
	884	0.10325	-3.26009E-001	-2.42579E-004	0.00000E+000	-3.25050E-001	-9.29272E-004	10	...........	-0.07
	918	0.107217	-3.57909E-001	-2.66642E-004	0.00000E+000	-3.56800E-001	-8.29272E-004	10	...........	-0.07
	952	0.111183	-3.89609E-001	-3.06745E-004	0.00000E+000	-3.88550E-001	-7.29272E-004	10	...........	-0.07
	986	0.11515	-4.21209E-001	-3.78932E-004	0.00000E+000	-4.20250E-001	-8.29272E-004	10	...........	-0.07
	1020	0.119117	-4.53109E-001	-5.49373E-004	0.00000E+000	-4.52000E-001	-6.29272E-004	10	...........	-0.07
	1054	0.123083	-4.84709E-001	-8.68198E-004	0.00000E+000	-4.83750E-001	-7.29272E-004	10	...........	-0.07
	1088	0.12705	-5.16509E-001	-1.29530E-003	0.00000E+000	-5.15450E-001	-9.29272E-004	10	...........	-0.07
	1122	0.131017	-5.48309E-001	-1.90488E-003	0.00000E+000	-5.47200E-001	-9.29272E-004	10	...........	-0.07
	1156	0.134983	-5.79809E-001	-2.71498E-003	0.00000E+000	-5.78950E-001	-9.29272E-004	10	...........	-0.07
	1190	0.13895	-6.11509E-001	-3.36466E-003	0.00000E+000	-6.10650E-001	-8.29272E-004	10	...........	-0.07
	1224	0.142917	-6.43309E-001	-3.46492E-003	0.00000E+000	-6.42400E-001	-1.02927E-003	10	...........	-0.07
	1258	0.146883	-6.75109E-001	-3.10198E-003	0.00000E+000	-6.74150E-001	-7.29272E-004	10	...........	-0.07
	1292	0.15085	-7.06709E-001	-2.75107E-003	0.00000E+000	-7.05850E-001	-8.29272E-004	10	...........	-0.07
	1326	0.154817	-7.38409E-001	-2.49240E-003	0.00000E+000	-7.37600E-001	-8.29272E-004	10	...........	-0.07
	1360	0.158783	-7.70009E-001	-2.25178E-003	0.00000E+000	-7.69350E-001	-8.29272E-004	10	...........	-0.07
	1394	0.16275	-8.01909E-001	-2.03923E-003	0.00000E+000	-8.01050E-001	-1.02927E-003	10	...........	-0.07
	1428	0.166717	-8.33709E-001	-1.85876E-003	0.00000E+000	-8.32800E-001	-8.29272E-004	10	...........	-0.07
	1462	0.170683	-8.65409E-001	-1.71238E-003	0.00000E+000	-8.64550E-001	-9.29272E-004	10	...........	-0.07
	1496	0.17465	-8.97009E-001	-1.58606E-003	0.00000E+000	-8.96250E-001	-7.29272E-004	10	...........	-0.07
	1530	0.178617	-9.28809E-001	-1.49181E-003	0.00000E+000	-9.28000E-001	-8.29272E-004	10	...........	-0.07
	1564	0.182583	-9.60509E-001	-1.40860E-003	0.00000E+000	-9.59750E-001	-9.29272E-004	10	...........	-0.07
	1598	0.18655	-9.92309E-001	-1.34142E-003	0.00000E+000	-9.91450E-001	-8.29272E-004	10	...........	-0.07
	1632	0.190517	-9.77109E-001	-8.05034E-004	0.00000E+000	-9.76550E-001	-9.29272E-004	10	...........	-0.07
	1666	0.194483	-9.45509E-001	-6.71689E-004	0.00000E+000	-9.44800E-001	-8.29272E-004	10	...........	-0.07
	1700	0.19845	-9.13609E-001	-5.95492E-004	0.00000E+000	-9.13050E-001	-9.29272E-004	10	...........	-0.07
	1734	0.202417	-8.81909E-001	-5.49373E-004	0.00000E+000	-8.81350E-001	-7.29272E-004	10	...........	-0.07
	1768	0.206383	-8.50009E-001	-5.12277E-004	0.00000E+000	-8.49600E-001	-9.29272E-004	10	...........	-0.07
	1802	0.21035	-8.18709E-001	-4.78189E-004	0.00000E+000	-8.17850E-001	-7.29272E-004	10	...........	-0.07
	1836	0.214317	-7.86709E-001	-4.45103E-004	0.00000E+000	-7.86150E-001	-7.29272E-004	10	...........	-0.07
	1870	0.218283	-7.55109E-001	-4.17031E-004	0.00000E+000	-7.54400E-001	-8.29272E-004	10	...........	-0.07
	1904	0.22225	-7.23509E-001	-3.78932E-004	0.00000E+000	-7.22650E-001	-1.02927E-003	10	...........	-0.07
	1938	0.226217	-6.91609E-001	-3.30808E-004	0.00000E+000	-6.90950E-001	-8.29272E-004	10	...........	-0.07
	1972	0.230183	-6.60009E-001	-2.61629E-004	0.00000E+000	-6.59200E-001	-7.29272E-004	10	...........	-0.07
	2006	0.23415	-6.28209E-001	-1.44325E-004	0.00000E+000	-6.27450E-001	-9.29272E-004	10	...........	-0.07
	2040	0.238117	-5.96709E-001	7.02301E-005	0.00000E+000	-5.95750E-001	-8.29272E-004	10	...........	-0.07
	2074	0.242083	-5.64909E-001	4.29159E-004	0.00000E+000	-5.64000E-001	-7.29272E-004	10	...........	-0.07
	2108	0.24605	-5.33109E-001	8.82331E-004	0.00000E+000	-5.32250E-001	-7.29272E-004	10	...........	-0.07
	2142	0.250017	-5.01409E-001	1.30142E-003	0.00000E+000	-5.00550E-001	-8.29272E-004	10	...........	-0.07
	2176	0.253983	-4.69809E-001	1.60420E-003	0.00000E+000	-4.68800E-001	-9.29272E-004	10	...........	-0.07
	2210	0.25795	-4.37909E-001	1.68641E-003	0.00000E+000	-4.37050E-001	-1.02927E-003	10	...........	-0.07
	2244	0.261917	-4.06309E-001	1.59818E-003	0.00000E+000	-4.05350E-001	-9.29272E-004	10	...........	-0.07
	2278	0.265883	-3.74609E-001	1.48489E-003	0.00000E+000	-3.73600E-001	-6.29272E-004	10	...........	-0.07
	2312	0.26985	-3.42909E-001	1.39566E-003	0.00000E+000	-3.41850E-001	-8.29272E-004	10	...........	-0.07
	2346	0.273817	-3.11109E-001	1.32949E-003	0.00000E+000	-3.10150E-001	-8.29272E-004	10	...........	-0.07
	2380	0.277783	-2.79409E-001	1.26933E-003	0.00000E+000	-2.78400E-001	-9.29272E-004	10	...........	-0.07
	2414	0.28175	-2.47509E-001	1.20216E-003	0.00000E+000	-2.46650E-001	-9.29272E-004	10	...........	-0.07
	2448	0.285717	-2.15909E-001	1.11694E-003	0.00000E+000	-2.14950E-001	-8.29272E-004	10	...........	-0.07
	2482	0.289683	-1.84109E-001	1.03473E-003	0.00000E+000	-1.83200E-001	-8.29272E-004	10	...........	-0.07
	2516	0.29365	-1.52409E-001	9.55521E-004	0.00000E+000	-1.51450E-001	-8.29272E-004	10	...........	-0.07
	2550	0.297617	-1.20709E-001	8.88347E-004	0.00000E+000	-1.19750E-001	-8.29272E-004	10	...........	-0.07
	2584	0.301583	-8.91090E-002	8.36212E-004	0.00000E+000	-8.80000E-002	-6.29272E-004	10	...........	-0.07
	2618	0.30555	-5.73090E-002	8.09142E-004	0.00000E+000	-5.62500E-002	-9.29272E-004	10	...........	-0.07
	2652	0.309517	-2.58090E-002	7.94103E-004	0.00000E+000	-2.45500E-002	-9.29272E-004	10	...........	-0.07
	2686	0.313483	5.99100E-003	8.06134E-004	0.00000E+000	7.20000E-003	-1.02927E-003	10	...........	-0.07
	2720	0.31745	3.79910E-002	8.39220E-004	0.00000E+000	3.89500E-002	-8.29272E-004	10	...........	-0.07
	2754	0.321417	6.97910E-002	8.82331E-004	0.00000E+000	7.06500E-002	-8.29272E-004	10	...........	-0.07
	2788	0.325383	1.01391E-001	9.22435E-004	0.00000E+000	1.02400E-001	-9.29272E-004	10	...........	-0.07
	2822	0.32935	1.33091E-001	9.52513E-004	0.00000E+000	1.34150E-001	-8.29272E-004	10	...........	-0.07
	2856	0.333317	1.64691E-001	9.34466E-004	0.00000E+000	1.65850E-001	-8.29272E-004	10	...........	-0.07
	2890	0.337283	1.96491E-001	8.74310E-004	0.00000E+000	1.97600E-001	-8.29272E-004	10	...........	-0.07
	2924	0.34125	2.27991E-001	7.95106E-004	0.00000E+000	2.29350E-001	-9.29272E-004	10	...........	-0.07
	2958	0.345217	2.59891E-001	7.13895E-004	0.00000E+000	2.61050E-001	-1.02927E-003	10	...........	-0.07
	2992	0.349183	2.91591E-001	6.55745E-004	0.00000E+000	2.92800E-001	-9.29272E-004	10	...........	-0.07
	3026	0.35315	3.23291E-001	6.15641E-004	0.00000E+000	3.24550E-001	-8.29272E-004	10	...........	-0.07
	3060	0.357117	3.54991E-001	5.83558E-004	0.00000E+000	3.56250E-001	-8.29272E-004	10	...........	-0.07
	3094	0.361083	3.86691E-001	5.61501E-004	0.00000E+000	3.88000E-001	-8.29272E-004	10	...........	-0.07
	3128	0.36505	4.18591E-001	5.56488E-004	0.00000E+000	4.19750E-001	-8.29272E-004	10	...........	-0.07
	3162	0.369017	4.50291E-001	5.45460E-004	0.00000E+000	4.51450E-001	-8.29272E-004	10	...........	-0.07
	3196	0.372983	4.81991E-001	5.39444E-004	0.00000E+000	4.83200E-001	-8.29272E-004	10	...........	-0.07
	3214	0.375083	4.98691E-001	5.33429E-004	0.00000E+000	5.00000E-001	-9.29272E-004	10	...........	-0.07
CURVE2	TABLE
	Pt	T	Vf	Im	Vu	Sig	Ach	IERange	Over	Temp
	#	s	V vs. Ref.	A	V	V	V	#	bits	deg C
	3215	0.3752	4.98691E-001	4.77283E-004	0.00000E+000	5.00000E-001	-9.29272E-004	10	...........	-0.07