File: data/02-SI/Figures_S9_S11_RDE/14btmapaq-rde/1mkcl-5mmolar14btmapaq-nitrogen-5000mvpers.DTA
EXPLAIN
TAG	CV
TITLE	LABEL	Cyclic Voltammetry	Test &Identifier
DATE	LABEL	1/31/2023	Date
TIME	LABEL	14:05:29	Time
NOTES	NOTES	1	&Notes...

PSTAT	PSTAT	REF3000-21108	Potentiostat
VINIT	POTEN	5.00000E-001	F	Initial &E (V)
VLIMIT1	POTEN	-1.00000E+000	F	Scan Limit &1 (V)
VLIMIT2	POTEN	5.00000E-001	F	Scan Limit &2 (V)
VFINAL	POTEN	5.00000E-001	F	Final &E (V)
SCANRATE	QUANT	4.99999E+003	&Scan Rate (mV/s)
STEPSIZE	QUANT	1.00000E+000	St&ep Size (mV)
CYCLES	IQUANT	1	C&ycles (#)
IMODE	SELECTOR	1	I/E Range &Mode
IRANGE	QUANT	1.00000E+001	&Max Current (mA)
AREA	QUANT	1.00000E+000	Electrode &Area (cm^2)
ELECTRODETYPE	SELECTOR	0	Electrode Type
STRIPPING	TOGGLE	F	Used for Stripping
POLARITY	TOGGLE	F	Signal Polarity
CONDIT	TWOPARAM	F	1.50000E+001	0.00000E+000	Conditionin&g	Time(s)	E(V)
DELAY	TWOPARAM	F	5.00000E+000	0.00000E+000	Init. De&lay	Time(s)	Stab.(mV/s)
EQDELAY	QUANT	0.00000E+000	Equil. &Time (s)
IRCOMP	SELECTOR	0	IRCom&p
PFCOR	QUANT	5.00000E+001	PF Corr. (ohm)
SAMPLINGMODE	SELECTOR	1	Sampling &Mode
EOC	QUANT	0	Open Circuit (V)
PSTATMODEL	IQUANT	5	Pstat Model
PSTATSECTION	LABEL	REF3000-21108	Pstat Section
PSTATSERIALNO	LABEL	21108	Pstat Serial Number
CTRLMODE	IQUANT	1	Control Mode
ELECTROMETER	IQUANT	0	RE=0 or CS=1
IESTAB	IQUANT	2	I/E Stability
CASPEED	IQUANT	4	Control Amp Speed
CONVENTION	IQUANT	1	Current Convention
ICHRANGE	IQUANT	2	Ich Range
ICHRANGEMODE	TOGGLE	F	Ich Auto Range
ICHOFFSETENABLE	TOGGLE	F	Ich Offset Enable
ICHOFFSET	QUANT	0	Ich Offset (V)
ICHFILTER	IQUANT	1	Ich Filter
VCHRANGE	IQUANT	2	Vch Range
VCHRANGEMODE	TOGGLE	F	Vch Auto Range
VCHOFFSETENABLE	TOGGLE	F	Vch Offset Enable
VCHOFFSET	QUANT	0	Vch Offset (V)
VCHFILTER	IQUANT	1	Vch Filter
ACHRANGE	IQUANT	2	Ach Range
ACHOFFSETENABLE	TOGGLE	F	Ach Offset Enable
ACHOFFSET	QUANT	0	Ach Offset (V)
ACHFILTER	IQUANT	0	Ach Filter
IERANGELOWERLIMIT	IQUANT	2	I/E Range Lower Limit
IERANGEMODE	TOGGLE	F	I/E AutoRange
IERANGE	IQUANT	10	I/E Range
POSFEEDENABLE	TOGGLE	F	Positive Feedback IR Comp
POSFEEDRESISTANCE	QUANT	0	Positive Feedback Resistance (ohm)
ACHSELECT	IQUANT	0	Ach Select
SENSECABLEID	IQUANT	14	Sense Cable ID
PWRCABLEID	IQUANT	7	Power Cable ID
DCCALDATE	LABEL	11/9/2022	DC Calibration Date
ACCALDATE	LABEL	11/9/2022	AC Calibration Date
THERMOSELECT	IQUANT	1	Thermo Select
FRAMEWORKVERSION	LABEL	7.8.2	Framework Version
INSTRUMENTVERSION	LABEL	4.40	Instrument Version
COMPLIANCEVOLTAGE	IQUANT	0	Compliance Voltage
CURVE1	TABLE
	Pt	T	Vf	Im	Vu	Sig	Ach	IERange	Over	Temp
	#	s	V vs. Ref.	A	V	V	V	#	bits	deg C
	0	0.0002	4.98741E-001	5.66951E-005	0.00000E+000	5.00000E-001	-6.29272E-004	10	..........a	-327.74
	32	0.0066	4.66641E-001	-3.80501E-005	0.00000E+000	4.68000E-001	-7.29272E-004	10	..........a	-327.74
	64	0.013	4.34791E-001	-5.00812E-005	0.00000E+000	4.36000E-001	-6.29272E-004	10	..........a	-327.74
	96	0.0194	4.02691E-001	-6.01071E-005	0.00000E+000	4.04000E-001	-6.29272E-004	10	..........a	-327.74
	128	0.0258	3.70791E-001	-6.61227E-005	0.00000E+000	3.72000E-001	-6.29272E-004	10	..........a	-327.74
	160	0.0322	3.38791E-001	-7.51461E-005	0.00000E+000	3.40000E-001	-6.29272E-004	10	..........a	-327.74
	192	0.0386	3.06691E-001	-8.36681E-005	0.00000E+000	3.08000E-001	-8.29272E-004	10	..........a	-327.74
	224	0.045	2.74691E-001	-9.67018E-005	0.00000E+000	2.76000E-001	-6.29272E-004	10	..........a	-327.74
	256	0.0514	2.42841E-001	-1.01715E-004	0.00000E+000	2.44000E-001	-7.29272E-004	10	..........a	-327.74
	288	0.0578	2.10691E-001	-1.07730E-004	0.00000E+000	2.12000E-001	-7.29272E-004	10	..........a	-327.74
	320	0.0642	1.78941E-001	-1.08733E-004	0.00000E+000	1.80000E-001	-7.29272E-004	10	..........a	-327.74
	352	0.0706	1.46791E-001	-1.15250E-004	0.00000E+000	1.48000E-001	-6.29272E-004	10	..........a	-327.74
	384	0.077	1.14891E-001	-1.21265E-004	0.00000E+000	1.16000E-001	-7.29272E-004	10	..........a	-327.74
	416	0.0834	8.27910E-002	-1.22268E-004	0.00000E+000	8.40000E-002	-9.29272E-004	10	..........a	-327.74
	448	0.0898	5.08410E-002	-1.23772E-004	0.00000E+000	5.20000E-002	-5.29272E-004	10	..........a	-327.74
	480	0.0962	1.88910E-002	-1.23772E-004	0.00000E+000	2.00000E-002	-9.29272E-004	10	..........a	-327.74
	512	0.1026	-1.31590E-002	-1.25276E-004	0.00000E+000	-1.20000E-002	-5.29272E-004	10	..........a	-327.74
	544	0.109	-4.51590E-002	-1.25777E-004	0.00000E+000	-4.40000E-002	-6.29272E-004	10	..........a	-327.74
	576	0.1154	-7.71090E-002	-1.20764E-004	0.00000E+000	-7.60000E-002	-6.29272E-004	10	..........a	-327.74
	608	0.1218	-1.09209E-001	-1.19761E-004	0.00000E+000	-1.08000E-001	-7.29272E-004	10	..........a	-327.74
	640	0.1282	-1.41059E-001	-1.18759E-004	0.00000E+000	-1.40000E-001	-6.29272E-004	10	..........a	-327.74
	672	0.1346	-1.73009E-001	-1.16252E-004	0.00000E+000	-1.72000E-001	-8.29272E-004	10	..........a	-327.74
	704	0.141	-2.05009E-001	-1.18258E-004	0.00000E+000	-2.04000E-001	-6.29272E-004	10	..........a	-327.74
	736	0.1474	-2.37159E-001	-1.20764E-004	0.00000E+000	-2.36000E-001	-9.29272E-004	10	..........a	-327.74
	768	0.1538	-2.69109E-001	-1.26278E-004	0.00000E+000	-2.68000E-001	-1.02927E-003	10	..........a	-327.74
	800	0.1602	-3.01009E-001	-1.35803E-004	0.00000E+000	-3.00000E-001	-8.29272E-004	10	..........a	-327.74
	832	0.1666	-3.33059E-001	-1.53850E-004	0.00000E+000	-3.32000E-001	-7.29272E-004	10	..........a	-327.74
	864	0.173	-3.65159E-001	-1.77912E-004	0.00000E+000	-3.64000E-001	-4.29272E-004	10	..........a	-327.74
	896	0.1794	-3.97059E-001	-2.20021E-004	0.00000E+000	-3.96000E-001	-9.29272E-004	10	..........a	-327.74
	928	0.1858	-4.28959E-001	-2.97722E-004	0.00000E+000	-4.28000E-001	-9.29272E-004	10	..........a	-327.74
	960	0.1922	-4.61009E-001	-4.66158E-004	0.00000E+000	-4.60000E-001	-8.29272E-004	10	..........a	-327.74
	992	0.1986	-4.93009E-001	-7.57411E-004	0.00000E+000	-4.92000E-001	-6.29272E-004	10	..........a	-327.74
	1024	0.205	-5.24909E-001	-1.14291E-003	0.00000E+000	-5.24000E-001	-6.29272E-004	10	..........a	-327.74
	1056	0.2114	-5.57109E-001	-1.71890E-003	0.00000E+000	-5.56000E-001	-6.29272E-004	10	..........a	-327.74
	1088	0.2178	-5.88959E-001	-2.33349E-003	0.00000E+000	-5.88000E-001	-5.29272E-004	10	..........a	-327.74
	1120	0.2242	-6.20859E-001	-2.57612E-003	0.00000E+000	-6.20000E-001	-6.29272E-004	10	..........a	-327.74
	1152	0.2306	-6.52909E-001	-2.31795E-003	0.00000E+000	-6.52000E-001	-9.29272E-004	10	..........a	-327.74
	1184	0.237	-6.84859E-001	-2.00063E-003	0.00000E+000	-6.84000E-001	-7.29272E-004	10	..........a	-327.74
	1216	0.2434	-7.16859E-001	-1.78808E-003	0.00000E+000	-7.16000E-001	-8.29272E-004	10	..........a	-327.74
	1248	0.2498	-7.48959E-001	-1.60310E-003	0.00000E+000	-7.48000E-001	-6.29272E-004	10	..........a	-327.74
	1280	0.2562	-7.80859E-001	-1.44870E-003	0.00000E+000	-7.80000E-001	-7.29272E-004	10	..........a	-327.74
	1312	0.2626	-8.12809E-001	-1.31686E-003	0.00000E+000	-8.12000E-001	-6.29272E-004	10	..........a	-327.74
	1344	0.269	-8.44659E-001	-1.21359E-003	0.00000E+000	-8.44000E-001	-8.29272E-004	10	..........a	-327.74
	1376	0.2754	-8.76809E-001	-1.12687E-003	0.00000E+000	-8.76000E-001	-6.29272E-004	10	..........a	-327.74
	1408	0.2818	-9.08759E-001	-1.05669E-003	0.00000E+000	-9.08000E-001	-7.29272E-004	10	..........a	-327.74
	1440	0.2882	-9.40759E-001	-9.99538E-004	0.00000E+000	-9.40000E-001	-6.29272E-004	10	..........a	-327.74
	1472	0.2946	-9.72759E-001	-9.54922E-004	0.00000E+000	-9.72000E-001	-9.29272E-004	10	..........a	-327.74
	1504	0.301	-9.96659E-001	-7.53401E-004	0.00000E+000	-9.96000E-001	-7.29272E-004	10	..........a	-327.74
	1536	0.3074	-9.64659E-001	-5.77446E-004	0.00000E+000	-9.64000E-001	-6.29272E-004	10	..........a	-327.74
	1568	0.3138	-9.32959E-001	-5.14783E-004	0.00000E+000	-9.32000E-001	-8.29272E-004	10	..........a	-327.74
	1600	0.3202	-9.00659E-001	-4.77688E-004	0.00000E+000	-9.00000E-001	-7.29272E-004	10	..........a	-327.74
	1632	0.3266	-8.68759E-001	-4.49615E-004	0.00000E+000	-8.68000E-001	-6.29272E-004	10	..........a	-327.74
	1664	0.333	-8.36759E-001	-4.26555E-004	0.00000E+000	-8.36000E-001	-7.29272E-004	10	..........a	-327.74
	1696	0.3394	-8.04909E-001	-4.00989E-004	0.00000E+000	-8.04000E-001	-7.29272E-004	10	..........a	-327.74
	1728	0.3458	-7.72809E-001	-3.78932E-004	0.00000E+000	-7.72000E-001	-6.29272E-004	10	..........a	-327.74
	1760	0.3522	-7.40909E-001	-3.56875E-004	0.00000E+000	-7.40000E-001	-6.29272E-004	10	..........a	-327.74
	1792	0.3586	-7.08859E-001	-3.27298E-004	0.00000E+000	-7.08000E-001	-5.29272E-004	10	..........a	-327.74
	1824	0.365	-6.76909E-001	-2.90704E-004	0.00000E+000	-6.76000E-001	-9.29272E-004	10	..........a	-327.74
	1856	0.3714	-6.44809E-001	-2.24533E-004	0.00000E+000	-6.44000E-001	-7.29272E-004	10	..........a	-327.74
	1888	0.3778	-6.13059E-001	-1.10738E-004	0.00000E+000	-6.12000E-001	-7.29272E-004	10	..........a	-327.74
	1920	0.3842	-5.80959E-001	1.16349E-004	0.00000E+000	-5.80000E-001	-6.29272E-004	10	..........a	-327.74
	1952	0.3906	-5.49109E-001	4.71268E-004	0.00000E+000	-5.48000E-001	-7.29272E-004	10	..........a	-327.74
	1984	0.397	-5.16909E-001	8.51251E-004	0.00000E+000	-5.16000E-001	-6.29272E-004	10	..........a	-327.74
	2016	0.4034	-4.85009E-001	1.13699E-003	0.00000E+000	-4.84000E-001	-6.29272E-004	10	..........a	-327.74
	2048	0.4098	-4.53009E-001	1.25329E-003	0.00000E+000	-4.52000E-001	-8.29272E-004	10	..........a	-327.74
	2080	0.4162	-4.21009E-001	1.20517E-003	0.00000E+000	-4.20000E-001	-6.29272E-004	10	..........a	-327.74
	2112	0.4226	-3.88909E-001	1.10942E-003	0.00000E+000	-3.88000E-001	-8.29272E-004	10	..........a	-327.74
	2144	0.429	-3.57159E-001	1.02019E-003	0.00000E+000	-3.56000E-001	-6.29272E-004	10	..........a	-327.74
	2176	0.4354	-3.24959E-001	9.57526E-004	0.00000E+000	-3.24000E-001	-6.29272E-004	10	..........a	-327.74
	2208	0.4418	-2.93209E-001	9.01380E-004	0.00000E+000	-2.92000E-001	-7.29272E-004	10	..........a	-327.74
	2240	0.4482	-2.60959E-001	8.52253E-004	0.00000E+000	-2.60000E-001	-8.29272E-004	10	..........a	-327.74
	2272	0.4546	-2.29159E-001	7.88589E-004	0.00000E+000	-2.28000E-001	-8.29272E-004	10	..........a	-327.74
	2304	0.461	-1.97159E-001	7.26428E-004	0.00000E+000	-1.96000E-001	-8.29272E-004	10	..........a	-327.74
	2336	0.4674	-1.65159E-001	6.69280E-004	0.00000E+000	-1.64000E-001	-6.29272E-004	10	..........a	-327.74
	2368	0.4738	-1.33159E-001	6.26168E-004	0.00000E+000	-1.32000E-001	-8.29272E-004	10	..........a	-327.74
	2400	0.4802	-1.01009E-001	5.84060E-004	0.00000E+000	-1.00000E-001	-6.29272E-004	10	..........a	-327.74
	2432	0.4866	-6.91090E-002	5.61501E-004	0.00000E+000	-6.80000E-002	-6.29272E-004	10	..........a	-327.74
	2464	0.493	-3.70090E-002	5.49470E-004	0.00000E+000	-3.60000E-002	-8.29272E-004	10	..........a	-327.74
	2496	0.4994	-5.10900E-003	5.59997E-004	0.00000E+000	-4.00001E-003	-6.29272E-004	10	..........a	-327.74
	2528	0.5058	2.68910E-002	5.83057E-004	0.00000E+000	2.80000E-002	-6.29272E-004	10	..........a	-327.74
	2560	0.5122	5.88410E-002	6.11130E-004	0.00000E+000	6.00000E-002	-8.29272E-004	10	..........a	-327.74
	2592	0.5186	9.07910E-002	6.39202E-004	0.00000E+000	9.20000E-002	-7.29272E-004	10	..........a	-327.74
	2624	0.525	1.22891E-001	6.55244E-004	0.00000E+000	1.24000E-001	-6.29272E-004	10	..........a	-327.74
	2656	0.5314	1.54891E-001	6.32685E-004	0.00000E+000	1.56000E-001	-9.29272E-004	10	..........a	-327.74
	2688	0.5378	1.86741E-001	5.85062E-004	0.00000E+000	1.88000E-001	-6.29272E-004	10	..........a	-327.74
	2720	0.5442	2.18791E-001	5.21397E-004	0.00000E+000	2.20000E-001	-8.29272E-004	10	..........a	-327.74
	2752	0.5506	2.50791E-001	4.78787E-004	0.00000E+000	2.52000E-001	-6.29272E-004	10	..........a	-327.74
	2784	0.557	2.82791E-001	4.42192E-004	0.00000E+000	2.84000E-001	-8.29272E-004	10	..........a	-327.74
	2816	0.5634	3.14691E-001	4.14621E-004	0.00000E+000	3.16000E-001	-6.29272E-004	10	..........a	-327.74
	2848	0.5698	3.46791E-001	3.96073E-004	0.00000E+000	3.48000E-001	-6.29272E-004	10	..........a	-327.74
	2880	0.5762	3.78691E-001	3.82037E-004	0.00000E+000	3.80000E-001	-6.29272E-004	10	..........a	-327.74
	2912	0.5826	4.10691E-001	3.75520E-004	0.00000E+000	4.12000E-001	-8.29272E-004	10	..........a	-327.74
	2944	0.589	4.42841E-001	3.73515E-004	0.00000E+000	4.44000E-001	-6.29272E-004	10	..........a	-327.74
	2976	0.5954	4.74741E-001	3.68502E-004	0.00000E+000	4.76000E-001	-8.29272E-004	10	..........a	-327.74
	3000	0.6002	4.98741E-001	3.61985E-004	0.00000E+000	5.00000E-001	-6.29272E-004	10	..........a	-327.74
CURVE2	TABLE
	Pt	T	Vf	Im	Vu	Sig	Ach	IERange	Over	Temp
	#	s	V vs. Ref.	A	V	V	V	#	bits	deg C
	3001	0.6004	4.98691E-001	3.20377E-004	0.00000E+000	5.00000E-001	-6.29272E-004	10	..........a	-327.74