File: data/02-SI/Figures_S9_S11_RDE/14btmapaq-rde/1mkcl-5mmolar14btmapaq-nitrogen-300mvpers.DTA
EXPLAIN
TAG	CV
TITLE	LABEL	Cyclic Voltammetry	Test &Identifier
DATE	LABEL	1/31/2023	Date
TIME	LABEL	14:02:24	Time
NOTES	NOTES	1	&Notes...

PSTAT	PSTAT	REF3000-21108	Potentiostat
VINIT	POTEN	5.00000E-001	F	Initial &E (V)
VLIMIT1	POTEN	-1.00000E+000	F	Scan Limit &1 (V)
VLIMIT2	POTEN	5.00000E-001	F	Scan Limit &2 (V)
VFINAL	POTEN	5.00000E-001	F	Final &E (V)
SCANRATE	QUANT	2.99999E+002	&Scan Rate (mV/s)
STEPSIZE	QUANT	1.00000E+000	St&ep Size (mV)
CYCLES	IQUANT	1	C&ycles (#)
IMODE	SELECTOR	1	I/E Range &Mode
IRANGE	QUANT	1.00000E+001	&Max Current (mA)
AREA	QUANT	1.00000E+000	Electrode &Area (cm^2)
ELECTRODETYPE	SELECTOR	0	Electrode Type
STRIPPING	TOGGLE	F	Used for Stripping
POLARITY	TOGGLE	F	Signal Polarity
CONDIT	TWOPARAM	F	1.50000E+001	0.00000E+000	Conditionin&g	Time(s)	E(V)
DELAY	TWOPARAM	F	5.00000E+000	0.00000E+000	Init. De&lay	Time(s)	Stab.(mV/s)
EQDELAY	QUANT	0.00000E+000	Equil. &Time (s)
IRCOMP	SELECTOR	0	IRCom&p
PFCOR	QUANT	5.00000E+001	PF Corr. (ohm)
SAMPLINGMODE	SELECTOR	1	Sampling &Mode
EOC	QUANT	0	Open Circuit (V)
PSTATMODEL	IQUANT	5	Pstat Model
PSTATSECTION	LABEL	REF3000-21108	Pstat Section
PSTATSERIALNO	LABEL	21108	Pstat Serial Number
CTRLMODE	IQUANT	1	Control Mode
ELECTROMETER	IQUANT	0	RE=0 or CS=1
IESTAB	IQUANT	2	I/E Stability
CASPEED	IQUANT	4	Control Amp Speed
CONVENTION	IQUANT	1	Current Convention
ICHRANGE	IQUANT	2	Ich Range
ICHRANGEMODE	TOGGLE	F	Ich Auto Range
ICHOFFSETENABLE	TOGGLE	F	Ich Offset Enable
ICHOFFSET	QUANT	0	Ich Offset (V)
ICHFILTER	IQUANT	2	Ich Filter
VCHRANGE	IQUANT	2	Vch Range
VCHRANGEMODE	TOGGLE	F	Vch Auto Range
VCHOFFSETENABLE	TOGGLE	F	Vch Offset Enable
VCHOFFSET	QUANT	0	Vch Offset (V)
VCHFILTER	IQUANT	2	Vch Filter
ACHRANGE	IQUANT	2	Ach Range
ACHOFFSETENABLE	TOGGLE	F	Ach Offset Enable
ACHOFFSET	QUANT	0	Ach Offset (V)
ACHFILTER	IQUANT	0	Ach Filter
IERANGELOWERLIMIT	IQUANT	2	I/E Range Lower Limit
IERANGEMODE	TOGGLE	F	I/E AutoRange
IERANGE	IQUANT	10	I/E Range
POSFEEDENABLE	TOGGLE	F	Positive Feedback IR Comp
POSFEEDRESISTANCE	QUANT	0	Positive Feedback Resistance (ohm)
ACHSELECT	IQUANT	0	Ach Select
SENSECABLEID	IQUANT	14	Sense Cable ID
PWRCABLEID	IQUANT	7	Power Cable ID
DCCALDATE	LABEL	11/9/2022	DC Calibration Date
ACCALDATE	LABEL	11/9/2022	AC Calibration Date
THERMOSELECT	IQUANT	1	Thermo Select
FRAMEWORKVERSION	LABEL	7.8.2	Framework Version
INSTRUMENTVERSION	LABEL	4.40	Instrument Version
COMPLIANCEVOLTAGE	IQUANT	0	Compliance Voltage
CURVE1	TABLE
	Pt	T	Vf	Im	Vu	Sig	Ach	IERange	Over	Temp
	#	s	V vs. Ref.	A	V	V	V	#	bits	deg C
	0	0.003333	4.98821E-001	7.85408E-005	0.00000E+000	5.00000E-001	-8.24272E-004	10	..........a	-327.74
	32	0.11	4.66836E-001	4.03921E-005	0.00000E+000	4.68000E-001	-7.89272E-004	10	..........a	-327.74
	64	0.216667	4.34861E-001	2.97396E-005	0.00000E+000	4.36000E-001	-8.29272E-004	10	..........a	-327.74
	96	0.323333	4.02851E-001	2.38243E-005	0.00000E+000	4.04000E-001	-8.69272E-004	10	..........a	-327.74
	128	0.43	3.70844E-001	2.01648E-005	0.00000E+000	3.72000E-001	-8.34272E-004	10	..........a	-327.74
	160	0.536667	3.38886E-001	1.69816E-005	0.00000E+000	3.40000E-001	-8.44272E-004	10	..........a	-327.74
	192	0.643333	3.06881E-001	1.52020E-005	0.00000E+000	3.08000E-001	-8.39272E-004	10	..........a	-327.74
	224	0.75	2.74871E-001	1.34224E-005	0.00000E+000	2.76000E-001	-8.64272E-004	10	..........a	-327.74
	256	0.856667	2.42886E-001	1.17681E-005	0.00000E+000	2.44000E-001	-8.54272E-004	10	..........a	-327.74
	288	0.96333	2.10899E-001	1.07906E-005	0.00000E+000	2.12000E-001	-8.24272E-004	10	..........a	-327.74
	320	1.07	1.78984E-001	9.83810E-006	0.00000E+000	1.80000E-001	-8.29272E-004	10	..........a	-327.74
	352	1.17667	1.47021E-001	8.63498E-006	0.00000E+000	1.48000E-001	-8.19272E-004	10	..........a	-327.74
	384	1.28333	1.14964E-001	7.70758E-006	0.00000E+000	1.16000E-001	-8.34272E-004	10	..........a	-327.74
	416	1.39	8.29736E-002	6.88044E-006	0.00000E+000	8.40000E-002	-8.19272E-004	10	..........a	-327.74
	448	1.49667	5.09336E-002	5.52694E-006	0.00000E+000	5.20000E-002	-8.34272E-004	10	..........a	-327.74
	480	1.60333	1.89086E-002	4.17344E-006	0.00000E+000	2.00000E-002	-8.19272E-004	10	..........a	-327.74
	512	1.71	-1.30264E-002	3.54682E-006	0.00000E+000	-1.20000E-002	-8.34272E-004	10	..........a	-327.74
	544	1.81667	-4.50189E-002	2.59435E-006	0.00000E+000	-4.40000E-002	-8.64272E-004	10	..........a	-327.74
	576	1.92333	-7.69489E-002	1.59176E-006	0.00000E+000	-7.60000E-002	-8.19272E-004	10	..........a	-327.74
	608	2.03	-1.08909E-001	1.01527E-006	0.00000E+000	-1.08000E-001	-8.24272E-004	10	..........a	-327.74
	640	2.13667	-1.40916E-001	5.39036E-007	0.00000E+000	-1.40000E-001	-8.24272E-004	10	..........a	-327.74
	672	2.24333	-1.72941E-001	-1.62780E-007	0.00000E+000	-1.72000E-001	-8.69272E-004	10	..........a	-327.74
	704	2.35	-2.04939E-001	-1.11524E-006	0.00000E+000	-2.04000E-001	-8.29272E-004	10	..........a	-327.74
	736	2.45667	-2.36964E-001	-2.97004E-006	0.00000E+000	-2.36000E-001	-8.14272E-004	10	..........a	-327.74
	768	2.56333	-2.68874E-001	-4.47393E-006	0.00000E+000	-2.68000E-001	-8.14272E-004	10	..........a	-327.74
	800	2.67	-3.00869E-001	-6.22847E-006	0.00000E+000	-3.00000E-001	-7.69272E-004	10	..........a	-327.74
	832	2.77667	-3.32816E-001	-8.20860E-006	0.00000E+000	-3.32000E-001	-7.99272E-004	10	..........a	-327.74
	864	2.88333	-3.64931E-001	-1.09407E-005	0.00000E+000	-3.64000E-001	-8.19272E-004	10	..........a	-327.74
	896	2.99	-3.96834E-001	-1.89113E-005	0.00000E+000	-3.96000E-001	-8.34272E-004	10	..........a	-327.74
	928	3.09667	-4.28849E-001	-4.19208E-005	0.00000E+000	-4.28000E-001	-7.84272E-004	10	..........a	-327.74
	960	3.20333	-4.60809E-001	-9.63115E-005	0.00000E+000	-4.60000E-001	-7.94272E-004	10	..........a	-327.74
	992	3.31	-4.92794E-001	-1.83663E-004	0.00000E+000	-4.92000E-001	-8.09272E-004	10	..........a	-327.74
	1024	3.41667	-5.24779E-001	-3.18110E-004	0.00000E+000	-5.24000E-001	-8.39272E-004	10	..........a	-327.74
	1056	3.52333	-5.56776E-001	-4.80831E-004	0.00000E+000	-5.56000E-001	-8.04272E-004	10	..........a	-327.74
	1088	3.63	-5.88786E-001	-5.10533E-004	0.00000E+000	-5.88000E-001	-8.04272E-004	10	..........a	-327.74
	1120	3.73667	-6.20746E-001	-4.10123E-004	0.00000E+000	-6.20000E-001	-7.79272E-004	10	..........a	-327.74
	1152	3.84333	-6.52739E-001	-3.39641E-004	0.00000E+000	-6.52000E-001	-7.94272E-004	10	..........a	-327.74
	1184	3.95	-6.84754E-001	-2.96630E-004	0.00000E+000	-6.84000E-001	-8.09272E-004	10	..........a	-327.74
	1216	4.05667	-7.16734E-001	-2.64071E-004	0.00000E+000	-7.16000E-001	-7.99272E-004	10	..........a	-327.74
	1248	4.16333	-7.48706E-001	-2.40234E-004	0.00000E+000	-7.48000E-001	-7.79272E-004	10	..........a	-327.74
	1280	4.27	-7.80706E-001	-2.21109E-004	0.00000E+000	-7.80000E-001	-8.14272E-004	10	..........a	-327.74
	1312	4.37667	-8.12696E-001	-2.06547E-004	0.00000E+000	-8.12000E-001	-7.89272E-004	10	..........a	-327.74
	1344	4.48333	-8.44654E-001	-1.93939E-004	0.00000E+000	-8.44000E-001	-7.94272E-004	10	..........a	-327.74
	1376	4.59	-8.76694E-001	-1.83663E-004	0.00000E+000	-8.76000E-001	-7.39272E-004	10	..........a	-327.74
	1408	4.69667	-9.08566E-001	-1.75090E-004	0.00000E+000	-9.08000E-001	-7.94272E-004	10	..........a	-327.74
	1440	4.80333	-9.40629E-001	-1.67646E-004	0.00000E+000	-9.40000E-001	-7.74272E-004	10	..........a	-327.74
	1472	4.91	-9.72616E-001	-1.61505E-004	0.00000E+000	-9.72000E-001	-8.29272E-004	10	..........a	-327.74
	1504	5.01667	-9.96626E-001	-1.51956E-004	0.00000E+000	-9.96000E-001	-7.89272E-004	10	..........a	-327.74
	1536	5.12333	-9.64619E-001	-1.38420E-004	0.00000E+000	-9.64000E-001	-8.24272E-004	10	..........a	-327.74
	1568	5.23	-9.32656E-001	-1.31603E-004	0.00000E+000	-9.32000E-001	-8.29272E-004	10	..........a	-327.74
	1600	5.33667	-9.00636E-001	-1.26490E-004	0.00000E+000	-9.00000E-001	-8.24272E-004	10	..........a	-327.74
	1632	5.44333	-8.68674E-001	-1.21652E-004	0.00000E+000	-8.68000E-001	-7.94272E-004	10	..........a	-327.74
	1664	5.55	-8.36636E-001	-1.18143E-004	0.00000E+000	-8.36000E-001	-7.84272E-004	10	..........a	-327.74
	1696	5.65667	-8.04716E-001	-1.14433E-004	0.00000E+000	-8.04000E-001	-8.09272E-004	10	..........a	-327.74
	1728	5.76333	-7.72731E-001	-1.10849E-004	0.00000E+000	-7.72000E-001	-7.94272E-004	10	..........a	-327.74
	1760	5.87	-7.40751E-001	-1.07390E-004	0.00000E+000	-7.40000E-001	-8.14272E-004	10	..........a	-327.74
	1792	5.97667	-7.08744E-001	-1.03355E-004	0.00000E+000	-7.08000E-001	-7.64272E-004	10	..........a	-327.74
	1824	6.08333	-6.76761E-001	-9.81663E-005	0.00000E+000	-6.76000E-001	-8.04272E-004	10	..........a	-327.74
	1856	6.19	-6.44741E-001	-9.12234E-005	0.00000E+000	-6.44000E-001	-8.04272E-004	10	..........a	-327.74
	1888	6.29667	-6.12816E-001	-7.58837E-005	0.00000E+000	-6.12000E-001	-7.89272E-004	10	..........a	-327.74
	1920	6.40333	-5.80766E-001	-1.99389E-005	0.00000E+000	-5.80000E-001	-7.99272E-004	10	..........a	-327.74
	1952	6.51	-5.48874E-001	1.25086E-004	0.00000E+000	-5.48000E-001	-8.49272E-004	10	..........a	-327.74
	1984	6.61667	-5.16756E-001	2.66076E-004	0.00000E+000	-5.16000E-001	-8.14272E-004	10	..........a	-327.74
	2016	6.72333	-4.84824E-001	3.17033E-004	0.00000E+000	-4.84000E-001	-8.44272E-004	10	..........a	-327.74
	2048	6.83	-4.52811E-001	2.97357E-004	0.00000E+000	-4.52000E-001	-8.34272E-004	10	..........a	-327.74
	2080	6.93667	-4.20981E-001	2.52641E-004	0.00000E+000	-4.20000E-001	-8.14272E-004	10	..........a	-327.74
	2112	7.04333	-3.88854E-001	2.14142E-004	0.00000E+000	-3.88000E-001	-8.14272E-004	10	..........a	-327.74
	2144	7.15	-3.56854E-001	1.85793E-004	0.00000E+000	-3.56000E-001	-7.99272E-004	10	..........a	-327.74
	2176	7.25667	-3.24909E-001	1.65566E-004	0.00000E+000	-3.24000E-001	-8.34272E-004	10	..........a	-327.74
	2208	7.36333	-2.92991E-001	1.50201E-004	0.00000E+000	-2.92000E-001	-8.39272E-004	10	..........a	-327.74
	2240	7.47	-2.60899E-001	1.36666E-004	0.00000E+000	-2.60000E-001	-8.19272E-004	10	..........a	-327.74
	2272	7.57667	-2.28996E-001	1.24886E-004	0.00000E+000	-2.28000E-001	-7.84272E-004	10	..........a	-327.74
	2304	7.68333	-1.96916E-001	1.14083E-004	0.00000E+000	-1.96000E-001	-8.34272E-004	10	..........a	-327.74
	2336	7.79	-1.64904E-001	1.05059E-004	0.00000E+000	-1.64000E-001	-8.19272E-004	10	..........a	-327.74
	2368	7.89667	-1.32911E-001	9.71891E-005	0.00000E+000	-1.32000E-001	-8.39272E-004	10	..........a	-327.74
	2400	8.00333	-1.00994E-001	9.11986E-005	0.00000E+000	-1.00000E-001	-8.24272E-004	10	..........a	-327.74
	2432	8.11	-6.89764E-002	8.70128E-005	0.00000E+000	-6.80000E-002	-8.19272E-004	10	..........a	-327.74
	2464	8.21667	-3.69839E-002	8.37293E-005	0.00000E+000	-3.60000E-002	-8.14272E-004	10	..........a	-327.74
	2496	8.32333	-4.99394E-003	8.16990E-005	0.00000E+000	-4.00001E-003	-8.29272E-004	10	..........a	-327.74
	2528	8.43	2.70336E-002	8.01701E-005	0.00000E+000	2.80000E-002	-8.24272E-004	10	..........a	-327.74
	2560	8.53667	5.89111E-002	7.73127E-005	0.00000E+000	6.00000E-002	-8.54272E-004	10	..........a	-327.74
	2592	8.64333	9.10111E-002	7.38287E-005	0.00000E+000	9.20000E-002	-8.09272E-004	10	..........a	-327.74
	2624	8.75	1.22949E-001	7.04449E-005	0.00000E+000	1.24000E-001	-8.14272E-004	10	..........a	-327.74
	2656	8.85667	1.54974E-001	6.55823E-005	0.00000E+000	1.56000E-001	-8.19272E-004	10	..........a	-327.74
	2688	8.96333	1.86904E-001	6.16973E-005	0.00000E+000	1.88000E-001	-8.34272E-004	10	..........a	-327.74
	2720	9.07	2.18954E-001	5.84890E-005	0.00000E+000	2.20000E-001	-8.19272E-004	10	..........a	-327.74
	2752	9.17667	2.50961E-001	5.58572E-005	0.00000E+000	2.52000E-001	-8.39272E-004	10	..........a	-327.74
	2784	9.28333	2.82886E-001	5.44535E-005	0.00000E+000	2.84000E-001	-8.14272E-004	10	..........a	-327.74
	2816	9.39	3.14826E-001	5.25235E-005	0.00000E+000	3.16000E-001	-8.24272E-004	10	..........a	-327.74
	2848	9.49667	3.46831E-001	5.19220E-005	0.00000E+000	3.48000E-001	-8.14272E-004	10	..........a	-327.74
	2880	9.6033	3.78881E-001	5.08191E-005	0.00000E+000	3.80000E-001	-8.29272E-004	10	..........a	-327.74
	2912	9.71	4.10856E-001	4.93403E-005	0.00000E+000	4.12000E-001	-8.39272E-004	10	..........a	-327.74
	2944	9.8167	4.42849E-001	4.77361E-005	0.00000E+000	4.44000E-001	-8.49272E-004	10	..........a	-327.74
	2976	9.9233	4.74846E-001	4.64077E-005	0.00000E+000	4.76000E-001	-8.14272E-004	10	..........a	-327.74
	3000	10.0033	4.98824E-001	4.52046E-005	0.00000E+000	5.00000E-001	-8.09272E-004	10	..........a	-327.74
CURVE2	TABLE
	Pt	T	Vf	Im	Vu	Sig	Ach	IERange	Over	Temp
	#	s	V vs. Ref.	A	V	V	V	#	bits	deg C
	3001	10.0067	4.98821E-001	4.41519E-005	0.00000E+000	5.00000E-001	-8.24272E-004	10	..........a	-327.74