File: data/02-SI/Figures_S9_S11_RDE/14btmapaq-rde/1mkcl-5mmolar14btmapaq-nitrogen-900mvpers.DTA
EXPLAIN
TAG	CV
TITLE	LABEL	Cyclic Voltammetry	Test &Identifier
DATE	LABEL	1/31/2023	Date
TIME	LABEL	14:04:09	Time
NOTES	NOTES	1	&Notes...

PSTAT	PSTAT	REF3000-21108	Potentiostat
VINIT	POTEN	5.00000E-001	F	Initial &E (V)
VLIMIT1	POTEN	-1.00000E+000	F	Scan Limit &1 (V)
VLIMIT2	POTEN	5.00000E-001	F	Scan Limit &2 (V)
VFINAL	POTEN	5.00000E-001	F	Final &E (V)
SCANRATE	QUANT	8.95521E+002	&Scan Rate (mV/s)
STEPSIZE	QUANT	1.00000E+000	St&ep Size (mV)
CYCLES	IQUANT	1	C&ycles (#)
IMODE	SELECTOR	1	I/E Range &Mode
IRANGE	QUANT	1.00000E+001	&Max Current (mA)
AREA	QUANT	1.00000E+000	Electrode &Area (cm^2)
ELECTRODETYPE	SELECTOR	0	Electrode Type
STRIPPING	TOGGLE	F	Used for Stripping
POLARITY	TOGGLE	F	Signal Polarity
CONDIT	TWOPARAM	F	1.50000E+001	0.00000E+000	Conditionin&g	Time(s)	E(V)
DELAY	TWOPARAM	F	5.00000E+000	0.00000E+000	Init. De&lay	Time(s)	Stab.(mV/s)
EQDELAY	QUANT	0.00000E+000	Equil. &Time (s)
IRCOMP	SELECTOR	0	IRCom&p
PFCOR	QUANT	5.00000E+001	PF Corr. (ohm)
SAMPLINGMODE	SELECTOR	1	Sampling &Mode
EOC	QUANT	0	Open Circuit (V)
PSTATMODEL	IQUANT	5	Pstat Model
PSTATSECTION	LABEL	REF3000-21108	Pstat Section
PSTATSERIALNO	LABEL	21108	Pstat Serial Number
CTRLMODE	IQUANT	1	Control Mode
ELECTROMETER	IQUANT	0	RE=0 or CS=1
IESTAB	IQUANT	2	I/E Stability
CASPEED	IQUANT	4	Control Amp Speed
CONVENTION	IQUANT	1	Current Convention
ICHRANGE	IQUANT	2	Ich Range
ICHRANGEMODE	TOGGLE	F	Ich Auto Range
ICHOFFSETENABLE	TOGGLE	F	Ich Offset Enable
ICHOFFSET	QUANT	0	Ich Offset (V)
ICHFILTER	IQUANT	1	Ich Filter
VCHRANGE	IQUANT	2	Vch Range
VCHRANGEMODE	TOGGLE	F	Vch Auto Range
VCHOFFSETENABLE	TOGGLE	F	Vch Offset Enable
VCHOFFSET	QUANT	0	Vch Offset (V)
VCHFILTER	IQUANT	1	Vch Filter
ACHRANGE	IQUANT	2	Ach Range
ACHOFFSETENABLE	TOGGLE	F	Ach Offset Enable
ACHOFFSET	QUANT	0	Ach Offset (V)
ACHFILTER	IQUANT	0	Ach Filter
IERANGELOWERLIMIT	IQUANT	2	I/E Range Lower Limit
IERANGEMODE	TOGGLE	F	I/E AutoRange
IERANGE	IQUANT	10	I/E Range
POSFEEDENABLE	TOGGLE	F	Positive Feedback IR Comp
POSFEEDRESISTANCE	QUANT	0	Positive Feedback Resistance (ohm)
ACHSELECT	IQUANT	0	Ach Select
SENSECABLEID	IQUANT	14	Sense Cable ID
PWRCABLEID	IQUANT	7	Power Cable ID
DCCALDATE	LABEL	11/9/2022	DC Calibration Date
ACCALDATE	LABEL	11/9/2022	AC Calibration Date
THERMOSELECT	IQUANT	1	Thermo Select
FRAMEWORKVERSION	LABEL	7.8.2	Framework Version
INSTRUMENTVERSION	LABEL	4.40	Instrument Version
COMPLIANCEVOLTAGE	IQUANT	0	Compliance Voltage
CURVE1	TABLE
	Pt	T	Vf	Im	Vu	Sig	Ach	IERange	Over	Temp
	#	s	V vs. Ref.	A	V	V	V	#	bits	deg C
	0	0.001117	4.98453E-001	1.01002E-004	0.00000E+000	5.00000E-001	-1.34356E-003	10	..........a	-327.74
	32	0.03685	4.66268E-001	6.15152E-005	0.00000E+000	4.67850E-001	-1.31499E-003	10	..........a	-327.74
	64	0.072583	4.34122E-001	4.77874E-005	0.00000E+000	4.35700E-001	-1.34356E-003	10	..........a	-327.74
	96	0.108317	4.01891E-001	4.01523E-005	0.00000E+000	4.03500E-001	-1.24356E-003	10	..........a	-327.74
	128	0.14405	3.69883E-001	3.12832E-005	0.00000E+000	3.71350E-001	-1.18641E-003	10	..........a	-327.74
	160	0.179783	3.37714E-001	2.64244E-005	0.00000E+000	3.39200E-001	-1.12927E-003	10	..........a	-327.74
	192	0.215517	3.05583E-001	2.07945E-005	0.00000E+000	3.07050E-001	-1.27213E-003	10	..........a	-327.74
	224	0.25125	2.73368E-001	1.85579E-005	0.00000E+000	2.74900E-001	-1.40070E-003	10	..........a	-327.74
	256	0.286983	2.41314E-001	1.45475E-005	0.00000E+000	2.42700E-001	-1.41499E-003	10	..........a	-327.74
	288	0.322717	2.09022E-001	1.30051E-005	0.00000E+000	2.10550E-001	-1.57213E-003	10	..........a	-327.74
	320	0.35845	1.76937E-001	1.23881E-005	0.00000E+000	1.78400E-001	-1.51499E-003	10	..........a	-327.74
	352	0.394183	1.44922E-001	6.60391E-006	0.00000E+000	1.46250E-001	-1.02927E-003	10	..........a	-327.74
	384	0.429917	1.12760E-001	5.06146E-006	0.00000E+000	1.14100E-001	-8.57844E-004	10	..........a	-327.74
	416	0.46565	8.04372E-002	3.82750E-006	0.00000E+000	8.19000E-002	-1.74356E-003	10	..........a	-327.74
	448	0.501383	4.84448E-002	2.02737E-007	0.00000E+000	4.97500E-002	-1.17213E-003	10	..........a	-327.74
	480	0.537117	1.62987E-002	-1.41684E-006	0.00000E+000	1.76000E-002	-1.34356E-003	10	..........a	-327.74
	512	0.57285	-1.60628E-002	-8.76979E-007	0.00000E+000	-1.45500E-002	-1.55784E-003	10	..........a	-327.74
	544	0.608583	-4.81321E-002	-4.34750E-006	0.00000E+000	-4.67000E-002	-1.58641E-003	10	..........a	-327.74
	576	0.644317	-8.02859E-002	-6.19844E-006	0.00000E+000	-7.89000E-002	-1.51499E-003	10	..........a	-327.74
	608	0.68005	-1.12378E-001	-7.20103E-006	0.00000E+000	-1.11050E-001	-1.38641E-003	10	..........a	-327.74
	640	0.715783	-1.44609E-001	-6.81542E-006	0.00000E+000	-1.43200E-001	-1.54356E-003	10	..........a	-327.74
	672	0.751517	-1.76640E-001	-1.05173E-005	0.00000E+000	-1.75350E-001	-1.01499E-003	10	..........a	-327.74
	704	0.78725	-2.08771E-001	-9.97745E-006	0.00000E+000	-2.07500E-001	-1.15784E-003	10	..........a	-327.74
	736	0.822983	-2.40971E-001	-1.29081E-005	0.00000E+000	-2.39700E-001	-1.02927E-003	10	..........a	-327.74
	768	0.858717	-2.73186E-001	-1.58388E-005	0.00000E+000	-2.71850E-001	-1.50070E-003	10	..........a	-327.74
	800	0.89445	-3.05317E-001	-2.01576E-005	0.00000E+000	-3.04000E-001	-1.24356E-003	10	..........a	-327.74
	832	0.930183	-3.37447E-001	-2.50935E-005	0.00000E+000	-3.36150E-001	-1.25784E-003	10	..........a	-327.74
	864	0.96592	-3.69632E-001	-3.43482E-005	0.00000E+000	-3.68300E-001	-1.18641E-003	10	..........a	-327.74
	896	1.00165	-4.01840E-001	-5.00812E-005	0.00000E+000	-4.00500E-001	-1.28642E-003	10	..........a	-327.74
	928	1.03738	-4.33971E-001	-9.50437E-005	0.00000E+000	-4.32650E-001	-1.20070E-003	10	..........a	-327.74
	960	1.07312	-4.65947E-001	-1.90830E-004	0.00000E+000	-4.64800E-001	-1.14356E-003	10	..........a	-327.74
	992	1.10885	-4.98209E-001	-3.32350E-004	0.00000E+000	-4.96950E-001	-1.32927E-003	10	..........a	-327.74
	1024	1.14458	-5.30278E-001	-5.47599E-004	0.00000E+000	-5.29100E-001	-1.04356E-003	10	..........a	-327.74
	1056	1.18032	-5.62317E-001	-8.26475E-004	0.00000E+000	-5.61300E-001	-9.14986E-004	10	..........a	-327.74
	1088	1.21605	-5.94540E-001	-9.21721E-004	0.00000E+000	-5.93450E-001	-9.72129E-004	10	..........a	-327.74
	1120	1.25178	-6.26740E-001	-7.67939E-004	0.00000E+000	-6.25600E-001	-9.57844E-004	10	..........a	-327.74
	1152	1.28752	-6.58971E-001	-6.36136E-004	0.00000E+000	-6.57750E-001	-1.32927E-003	10	..........a	-327.74
	1184	1.32325	-6.91017E-001	-5.56314E-004	0.00000E+000	-6.89900E-001	-1.02927E-003	10	..........a	-327.74
	1216	1.35898	-7.23263E-001	-4.93768E-004	0.00000E+000	-7.22100E-001	-1.57213E-003	10	..........a	-327.74
	1248	1.39472	-7.55340E-001	-4.47340E-004	0.00000E+000	-7.54250E-001	-1.14356E-003	10	..........a	-327.74
	1280	1.43045	-7.87555E-001	-4.08778E-004	0.00000E+000	-7.86400E-001	-1.20070E-003	10	..........a	-327.74
	1312	1.46618	-8.19609E-001	-3.79009E-004	0.00000E+000	-8.18550E-001	-1.58641E-003	10	..........a	-327.74
	1344	1.50192	-8.51724E-001	-3.53250E-004	0.00000E+000	-8.50700E-001	-1.44356E-003	10	..........a	-327.74
	1376	1.53765	-8.83878E-001	-3.34664E-004	0.00000E+000	-8.82900E-001	-1.30070E-003	10	..........a	-327.74
	1408	1.57338	-9.15978E-001	-3.17851E-004	0.00000E+000	-9.15050E-001	-1.32927E-003	10	..........a	-327.74
	1440	1.60912	-9.48286E-001	-3.03352E-004	0.00000E+000	-9.47200E-001	-1.45784E-003	10	..........a	-327.74
	1472	1.64485	-9.80478E-001	-2.91475E-004	0.00000E+000	-9.79350E-001	-1.91499E-003	10	..........a	-327.74
	1504	1.68058	-9.88409E-001	-2.54919E-004	0.00000E+000	-9.87400E-001	-1.18641E-003	10	..........a	-327.74
	1536	1.71632	-9.56347E-001	-2.32862E-004	0.00000E+000	-9.55250E-001	-1.60070E-003	10	..........a	-327.74
	1568	1.75205	-9.24140E-001	-2.19134E-004	0.00000E+000	-9.23100E-001	-1.30070E-003	10	..........a	-327.74
	1600	1.78778	-8.92009E-001	-2.10650E-004	0.00000E+000	-8.90900E-001	-1.30070E-003	10	..........a	-327.74
	1632	1.82352	-8.59840E-001	-2.02398E-004	0.00000E+000	-8.58750E-001	-1.32927E-003	10	..........a	-327.74
	1664	1.85925	-8.27701E-001	-1.93684E-004	0.00000E+000	-8.26600E-001	-1.44356E-003	10	..........a	-327.74
	1696	1.89498	-7.95532E-001	-1.86126E-004	0.00000E+000	-7.94450E-001	-1.27213E-003	10	..........a	-327.74
	1728	1.93072	-7.63409E-001	-1.80187E-004	0.00000E+000	-7.62300E-001	-1.38641E-003	10	..........a	-327.74
	1760	1.96645	-7.31232E-001	-1.72166E-004	0.00000E+000	-7.30100E-001	-1.22927E-003	10	..........a	-327.74
	1792	2.00218	-6.99155E-001	-1.64068E-004	0.00000E+000	-6.97950E-001	-1.40070E-003	10	..........a	-327.74
	1824	2.03792	-6.66963E-001	-1.52037E-004	0.00000E+000	-6.65800E-001	-1.35784E-003	10	..........a	-327.74
	1856	2.07365	-6.34863E-001	-1.34993E-004	0.00000E+000	-6.33650E-001	-1.44356E-003	10	..........a	-327.74
	1888	2.10938	-6.02701E-001	-8.82569E-005	0.00000E+000	-6.01500E-001	-1.68641E-003	10	..........a	-327.74
	1920	2.14512	-5.70532E-001	4.77103E-005	0.00000E+000	-5.69300E-001	-1.58641E-003	10	..........a	-327.74
	1952	2.18085	-5.38386E-001	2.73140E-004	0.00000E+000	-5.37150E-001	-1.38641E-003	10	..........a	-327.74
	1984	2.21658	-5.06263E-001	4.55843E-004	0.00000E+000	-5.05000E-001	-1.27213E-003	10	..........a	-327.74
	2016	2.25232	-4.74055E-001	5.21706E-004	0.00000E+000	-4.72850E-001	-1.15784E-003	10	..........a	-327.74
	2048	2.28805	-4.41909E-001	4.92091E-004	0.00000E+000	-4.40700E-001	-1.32927E-003	10	..........a	-327.74
	2080	2.32378	-4.09770E-001	4.30624E-004	0.00000E+000	-4.08500E-001	-1.45784E-003	10	..........a	-327.74
	2112	2.35952	-3.77694E-001	3.74710E-004	0.00000E+000	-3.76350E-001	-1.20070E-003	10	..........a	-327.74
	2144	2.39525	-3.45555E-001	3.36303E-004	0.00000E+000	-3.44200E-001	-1.28642E-003	10	..........a	-327.74
	2176	2.43098	-3.13440E-001	3.06996E-004	0.00000E+000	-3.12050E-001	-1.42927E-003	10	..........a	-327.74
	2208	2.46672	-2.81317E-001	2.83088E-004	0.00000E+000	-2.79900E-001	-1.37213E-003	10	..........a	-327.74
	2240	2.50245	-2.48947E-001	2.56790E-004	0.00000E+000	-2.47700E-001	-1.14356E-003	10	..........a	-327.74
	2272	2.53818	-2.16763E-001	2.36661E-004	0.00000E+000	-2.15550E-001	-1.17213E-003	10	..........a	-327.74
	2304	2.57392	-1.84609E-001	2.17689E-004	0.00000E+000	-1.83400E-001	-1.08642E-003	10	..........a	-327.74
	2336	2.60965	-1.52578E-001	2.00799E-004	0.00000E+000	-1.51250E-001	-1.17213E-003	10	..........a	-327.74
	2368	2.64538	-1.20463E-001	1.86454E-004	0.00000E+000	-1.19100E-001	-1.35784E-003	10	..........a	-327.74
	2400	2.68112	-8.83244E-002	1.79436E-004	0.00000E+000	-8.69000E-002	-1.40070E-003	10	..........a	-327.74
	2432	2.71685	-5.61244E-002	1.73112E-004	0.00000E+000	-5.47500E-002	-1.37213E-003	10	..........a	-327.74
	2464	2.75258	-2.40936E-002	1.71261E-004	0.00000E+000	-2.26000E-002	-1.57213E-003	10	..........a	-327.74
	2496	2.78832	7.92177E-003	1.76891E-004	0.00000E+000	9.55001E-003	-1.88641E-003	10	..........a	-327.74
	2528	2.82405	4.01833E-002	1.76814E-004	0.00000E+000	4.17000E-002	-1.51499E-003	10	..........a	-327.74
	2560	2.85978	7.24987E-002	1.75657E-004	0.00000E+000	7.39000E-002	-1.27213E-003	10	..........a	-327.74
	2592	2.89552	1.04599E-001	1.66788E-004	0.00000E+000	1.06050E-001	-1.22927E-003	10	..........a	-327.74
	2624	2.93125	1.36845E-001	1.54756E-004	0.00000E+000	1.38200E-001	-1.14356E-003	10	..........a	-327.74
	2656	2.96698	1.68976E-001	1.42417E-004	0.00000E+000	1.70350E-001	-1.17213E-003	10	..........a	-327.74
	2688	3.00272	2.01037E-001	1.34165E-004	0.00000E+000	2.02500E-001	-1.31499E-003	10	..........a	-327.74
	2720	3.03845	2.33183E-001	1.25835E-004	0.00000E+000	2.34700E-001	-1.37213E-003	10	..........a	-327.74
	2752	3.07418	2.65253E-001	1.20437E-004	0.00000E+000	2.66850E-001	-1.38641E-003	10	..........a	-327.74
	2784	3.10992	2.97376E-001	1.15347E-004	0.00000E+000	2.99000E-001	-1.70070E-003	10	..........a	-327.74
	2816	3.14565	3.29499E-001	1.12879E-004	0.00000E+000	3.31150E-001	-1.52927E-003	10	..........a	-327.74
	2848	3.18138	3.61706E-001	1.11182E-004	0.00000E+000	3.63300E-001	-1.45784E-003	10	..........a	-327.74
	2880	3.21712	3.93976E-001	1.10025E-004	0.00000E+000	3.95500E-001	-1.34356E-003	10	..........a	-327.74
	2912	3.25285	4.26037E-001	1.06015E-004	0.00000E+000	4.27650E-001	-1.14356E-003	10	..........a	-327.74
	2944	3.28858	4.58206E-001	1.04395E-004	0.00000E+000	4.59800E-001	-1.22927E-003	10	..........a	-327.74
	2976	3.32432	4.90276E-001	1.02159E-004	0.00000E+000	4.91950E-001	-1.30070E-003	10	..........a	-327.74
	2984	3.33325	4.98368E-001	1.00462E-004	0.00000E+000	5.00000E-001	-1.44356E-003	10	..........a	-327.74
CURVE2	TABLE
	Pt	T	Vf	Im	Vu	Sig	Ach	IERange	Over	Temp
	#	s	V vs. Ref.	A	V	V	V	#	bits	deg C
	2985	3.33437	4.98437E-001	9.76857E-005	0.00000E+000	5.00000E-001	-1.57213E-003	10	..........a	-327.74