File: data/02-SI/Figures_S9_S11_RDE/14btmapaq-rde/1mkcl-5mmolar14btmapaq-nitrogen-600mvpers.DTA
EXPLAIN
TAG	CV
TITLE	LABEL	Cyclic Voltammetry	Test &Identifier
DATE	LABEL	1/31/2023	Date
TIME	LABEL	14:03:18	Time
NOTES	NOTES	1	&Notes...

PSTAT	PSTAT	REF3000-21108	Potentiostat
VINIT	POTEN	5.00000E-001	F	Initial &E (V)
VLIMIT1	POTEN	-1.00000E+000	F	Scan Limit &1 (V)
VLIMIT2	POTEN	5.00000E-001	F	Scan Limit &2 (V)
VFINAL	POTEN	5.00000E-001	F	Final &E (V)
SCANRATE	QUANT	5.99999E+002	&Scan Rate (mV/s)
STEPSIZE	QUANT	1.00000E+000	St&ep Size (mV)
CYCLES	IQUANT	1	C&ycles (#)
IMODE	SELECTOR	1	I/E Range &Mode
IRANGE	QUANT	1.00000E+001	&Max Current (mA)
AREA	QUANT	1.00000E+000	Electrode &Area (cm^2)
ELECTRODETYPE	SELECTOR	0	Electrode Type
STRIPPING	TOGGLE	F	Used for Stripping
POLARITY	TOGGLE	F	Signal Polarity
CONDIT	TWOPARAM	F	1.50000E+001	0.00000E+000	Conditionin&g	Time(s)	E(V)
DELAY	TWOPARAM	F	5.00000E+000	0.00000E+000	Init. De&lay	Time(s)	Stab.(mV/s)
EQDELAY	QUANT	0.00000E+000	Equil. &Time (s)
IRCOMP	SELECTOR	0	IRCom&p
PFCOR	QUANT	5.00000E+001	PF Corr. (ohm)
SAMPLINGMODE	SELECTOR	1	Sampling &Mode
EOC	QUANT	0	Open Circuit (V)
PSTATMODEL	IQUANT	5	Pstat Model
PSTATSECTION	LABEL	REF3000-21108	Pstat Section
PSTATSERIALNO	LABEL	21108	Pstat Serial Number
CTRLMODE	IQUANT	1	Control Mode
ELECTROMETER	IQUANT	0	RE=0 or CS=1
IESTAB	IQUANT	2	I/E Stability
CASPEED	IQUANT	4	Control Amp Speed
CONVENTION	IQUANT	1	Current Convention
ICHRANGE	IQUANT	2	Ich Range
ICHRANGEMODE	TOGGLE	F	Ich Auto Range
ICHOFFSETENABLE	TOGGLE	F	Ich Offset Enable
ICHOFFSET	QUANT	0	Ich Offset (V)
ICHFILTER	IQUANT	1	Ich Filter
VCHRANGE	IQUANT	2	Vch Range
VCHRANGEMODE	TOGGLE	F	Vch Auto Range
VCHOFFSETENABLE	TOGGLE	F	Vch Offset Enable
VCHOFFSET	QUANT	0	Vch Offset (V)
VCHFILTER	IQUANT	1	Vch Filter
ACHRANGE	IQUANT	2	Ach Range
ACHOFFSETENABLE	TOGGLE	F	Ach Offset Enable
ACHOFFSET	QUANT	0	Ach Offset (V)
ACHFILTER	IQUANT	0	Ach Filter
IERANGELOWERLIMIT	IQUANT	2	I/E Range Lower Limit
IERANGEMODE	TOGGLE	F	I/E AutoRange
IERANGE	IQUANT	10	I/E Range
POSFEEDENABLE	TOGGLE	F	Positive Feedback IR Comp
POSFEEDRESISTANCE	QUANT	0	Positive Feedback Resistance (ohm)
ACHSELECT	IQUANT	0	Ach Select
SENSECABLEID	IQUANT	14	Sense Cable ID
PWRCABLEID	IQUANT	7	Power Cable ID
DCCALDATE	LABEL	11/9/2022	DC Calibration Date
ACCALDATE	LABEL	11/9/2022	AC Calibration Date
THERMOSELECT	IQUANT	1	Thermo Select
FRAMEWORKVERSION	LABEL	7.8.2	Framework Version
INSTRUMENTVERSION	LABEL	4.40	Instrument Version
COMPLIANCEVOLTAGE	IQUANT	0	Compliance Voltage
CURVE1	TABLE
	Pt	T	Vf	Im	Vu	Sig	Ach	IERange	Over	Temp
	#	s	V vs. Ref.	A	V	V	V	#	bits	deg C
	0	0.001667	4.98711E-001	8.01056E-005	0.00000E+000	5.00000E-001	-8.19272E-004	10	..........a	-327.74
	32	0.055	4.66726E-001	5.00779E-005	0.00000E+000	4.68000E-001	-8.09272E-004	10	..........a	-327.74
	64	0.108333	4.34736E-001	3.69941E-005	0.00000E+000	4.36000E-001	-8.19272E-004	10	..........a	-327.74
	96	0.161667	4.02721E-001	2.91738E-005	0.00000E+000	4.04000E-001	-8.09272E-004	10	..........a	-327.74
	128	0.215	3.70771E-001	2.34591E-005	0.00000E+000	3.72000E-001	-7.99272E-004	10	..........a	-327.74
	160	0.268333	3.38776E-001	1.92983E-005	0.00000E+000	3.40000E-001	-8.19272E-004	10	..........a	-327.74
	192	0.321667	3.06761E-001	1.53381E-005	0.00000E+000	3.08000E-001	-8.19272E-004	10	..........a	-327.74
	224	0.375	2.74746E-001	1.21297E-005	0.00000E+000	2.76000E-001	-8.39272E-004	10	..........a	-327.74
	256	0.428333	2.42796E-001	1.04755E-005	0.00000E+000	2.44000E-001	-7.99272E-004	10	..........a	-327.74
	288	0.481667	2.10816E-001	8.11937E-006	0.00000E+000	2.12000E-001	-7.99272E-004	10	..........a	-327.74
	320	0.535	1.78831E-001	6.91626E-006	0.00000E+000	1.80000E-001	-8.09272E-004	10	..........a	-327.74
	352	0.588333	1.46856E-001	5.41237E-006	0.00000E+000	1.48000E-001	-8.09272E-004	10	..........a	-327.74
	384	0.641667	1.14836E-001	4.20926E-006	0.00000E+000	1.16000E-001	-7.59272E-004	10	..........a	-327.74
	416	0.695	8.28410E-002	2.49011E-007	0.00000E+000	8.40000E-002	-8.09272E-004	10	..........a	-327.74
	448	0.748333	5.08810E-002	-8.53843E-007	0.00000E+000	5.20000E-002	-7.69272E-004	10	..........a	-327.74
	480	0.801667	1.88310E-002	-5.41565E-006	0.00000E+000	2.00000E-002	-7.39272E-004	10	..........a	-327.74
	512	0.855	-1.31190E-002	-6.81928E-006	0.00000E+000	-1.20000E-002	-8.29272E-004	10	..........a	-327.74
	544	0.908333	-4.51390E-002	-8.12265E-006	0.00000E+000	-4.40000E-002	-7.89272E-004	10	..........a	-327.74
	576	0.96167	-7.71240E-002	-9.77693E-006	0.00000E+000	-7.60000E-002	-6.79272E-004	10	..........a	-327.74
	608	1.015	-1.09134E-001	-1.18322E-005	0.00000E+000	-1.08000E-001	-7.99272E-004	10	..........a	-327.74
	640	1.06833	-1.41084E-001	-1.00276E-005	0.00000E+000	-1.40000E-001	-8.29272E-004	10	..........a	-327.74
	672	1.12167	-1.73124E-001	-1.14312E-005	0.00000E+000	-1.72000E-001	-7.59272E-004	10	..........a	-327.74
	704	1.175	-2.05049E-001	-1.37372E-005	0.00000E+000	-2.04000E-001	-7.49272E-004	10	..........a	-327.74
	736	1.22833	-2.37064E-001	-1.55418E-005	0.00000E+000	-2.36000E-001	-8.39272E-004	10	..........a	-327.74
	768	1.28167	-2.69079E-001	-1.78979E-005	0.00000E+000	-2.68000E-001	-7.49272E-004	10	..........a	-327.74
	800	1.335	-3.01044E-001	-2.04546E-005	0.00000E+000	-3.00000E-001	-7.59272E-004	10	..........a	-327.74
	832	1.38833	-3.33044E-001	-2.53673E-005	0.00000E+000	-3.32000E-001	-7.49272E-004	10	..........a	-327.74
	864	1.44167	-3.65029E-001	-3.04805E-005	0.00000E+000	-3.64000E-001	-7.99272E-004	10	..........a	-327.74
	896	1.495	-3.96994E-001	-4.19602E-005	0.00000E+000	-3.96000E-001	-7.99272E-004	10	..........a	-327.74
	928	1.54833	-4.29044E-001	-7.48453E-005	0.00000E+000	-4.28000E-001	-7.89272E-004	10	..........a	-327.74
	960	1.60167	-4.60959E-001	-1.45227E-004	0.00000E+000	-4.60000E-001	-7.89272E-004	10	..........a	-327.74
	992	1.655	-4.93009E-001	-2.59924E-004	0.00000E+000	-4.92000E-001	-7.59272E-004	10	..........a	-327.74
	1024	1.70833	-5.24959E-001	-4.29814E-004	0.00000E+000	-5.24000E-001	-7.89272E-004	10	..........a	-327.74
	1056	1.76167	-5.56974E-001	-6.57403E-004	0.00000E+000	-5.56000E-001	-7.29272E-004	10	..........a	-327.74
	1088	1.815	-5.88849E-001	-7.44779E-004	0.00000E+000	-5.88000E-001	-6.89272E-004	10	..........a	-327.74
	1120	1.86833	-6.20889E-001	-6.22011E-004	0.00000E+000	-6.20000E-001	-7.19272E-004	10	..........a	-327.74
	1152	1.92167	-6.52824E-001	-5.12026E-004	0.00000E+000	-6.52000E-001	-7.49272E-004	10	..........a	-327.74
	1184	1.975	-6.84869E-001	-4.47309E-004	0.00000E+000	-6.84000E-001	-7.99272E-004	10	..........a	-327.74
	1216	2.02833	-7.16864E-001	-3.97430E-004	0.00000E+000	-7.16000E-001	-7.69272E-004	10	..........a	-327.74
	1248	2.08167	-7.48859E-001	-3.60434E-004	0.00000E+000	-7.48000E-001	-7.79272E-004	10	..........a	-327.74
	1280	2.135	-7.80814E-001	-3.30707E-004	0.00000E+000	-7.80000E-001	-7.29272E-004	10	..........a	-327.74
	1312	2.18833	-8.12844E-001	-3.06896E-004	0.00000E+000	-8.12000E-001	-7.49272E-004	10	..........a	-327.74
	1344	2.24167	-8.44759E-001	-2.88648E-004	0.00000E+000	-8.44000E-001	-7.29272E-004	10	..........a	-327.74
	1376	2.295	-8.76759E-001	-2.72557E-004	0.00000E+000	-8.76000E-001	-7.99272E-004	10	..........a	-327.74
	1408	2.34833	-9.08754E-001	-2.60024E-004	0.00000E+000	-9.08000E-001	-8.09272E-004	10	..........a	-327.74
	1440	2.40167	-9.40734E-001	-2.48946E-004	0.00000E+000	-9.40000E-001	-7.99272E-004	10	..........a	-327.74
	1472	2.455	-9.72699E-001	-2.39321E-004	0.00000E+000	-9.72000E-001	-8.09272E-004	10	..........a	-327.74
	1504	2.50833	-9.96759E-001	-2.23179E-004	0.00000E+000	-9.96000E-001	-7.29272E-004	10	..........a	-327.74
	1536	2.56167	-9.64729E-001	-2.00019E-004	0.00000E+000	-9.64000E-001	-7.89272E-004	10	..........a	-327.74
	1568	2.615	-9.32744E-001	-1.89492E-004	0.00000E+000	-9.32000E-001	-7.59272E-004	10	..........a	-327.74
	1600	2.66833	-9.00799E-001	-1.80970E-004	0.00000E+000	-9.00000E-001	-7.69272E-004	10	..........a	-327.74
	1632	2.72167	-8.68739E-001	-1.74704E-004	0.00000E+000	-8.68000E-001	-7.69272E-004	10	..........a	-327.74
	1664	2.775	-8.36734E-001	-1.67234E-004	0.00000E+000	-8.36000E-001	-7.89272E-004	10	..........a	-327.74
	1696	2.82833	-8.04844E-001	-1.62773E-004	0.00000E+000	-8.04000E-001	-7.99272E-004	10	..........a	-327.74
	1728	2.88167	-7.72799E-001	-1.57158E-004	0.00000E+000	-7.72000E-001	-7.99272E-004	10	..........a	-327.74
	1760	2.935	-7.40869E-001	-1.52797E-004	0.00000E+000	-7.40000E-001	-7.59272E-004	10	..........a	-327.74
	1792	2.98833	-7.08824E-001	-1.46681E-004	0.00000E+000	-7.08000E-001	-8.09272E-004	10	..........a	-327.74
	1824	3.04167	-6.76949E-001	-1.38761E-004	0.00000E+000	-6.76000E-001	-7.69272E-004	10	..........a	-327.74
	1856	3.095	-6.44864E-001	-1.26629E-004	0.00000E+000	-6.44000E-001	-8.19272E-004	10	..........a	-327.74
	1888	3.14833	-6.12969E-001	-1.04572E-004	0.00000E+000	-6.12000E-001	-7.09272E-004	10	..........a	-327.74
	1920	3.20167	-5.80939E-001	-2.60691E-005	0.00000E+000	-5.80000E-001	-8.09272E-004	10	..........a	-327.74
	1952	3.255	-5.48964E-001	1.53947E-004	0.00000E+000	-5.48000E-001	-8.49272E-004	10	..........a	-327.74
	1984	3.30833	-5.16999E-001	3.36870E-004	0.00000E+000	-5.16000E-001	-7.89272E-004	10	..........a	-327.74
	2016	3.36167	-4.84984E-001	4.18230E-004	0.00000E+000	-4.84000E-001	-8.29272E-004	10	..........a	-327.74
	2048	3.415	-4.53029E-001	4.09558E-004	0.00000E+000	-4.52000E-001	-8.59272E-004	10	..........a	-327.74
	2080	3.46833	-4.20999E-001	3.55117E-004	0.00000E+000	-4.20000E-001	-7.99272E-004	10	..........a	-327.74
	2112	3.52167	-3.89014E-001	3.05439E-004	0.00000E+000	-3.88000E-001	-8.39272E-004	10	..........a	-327.74
	2144	3.575	-3.57049E-001	2.68694E-004	0.00000E+000	-3.56000E-001	-7.79272E-004	10	..........a	-327.74
	2176	3.62833	-3.24994E-001	2.41122E-004	0.00000E+000	-3.24000E-001	-8.29272E-004	10	..........a	-327.74
	2208	3.68167	-2.92989E-001	2.18564E-004	0.00000E+000	-2.92000E-001	-8.09272E-004	10	..........a	-327.74
	2240	3.735	-2.61049E-001	1.99665E-004	0.00000E+000	-2.60000E-001	-7.79272E-004	10	..........a	-327.74
	2272	3.78833	-2.29059E-001	1.81869E-004	0.00000E+000	-2.28000E-001	-7.89272E-004	10	..........a	-327.74
	2304	3.84167	-1.97104E-001	1.66629E-004	0.00000E+000	-1.96000E-001	-8.39272E-004	10	..........a	-327.74
	2336	3.895	-1.65129E-001	1.51941E-004	0.00000E+000	-1.64000E-001	-7.89272E-004	10	..........a	-327.74
	2368	3.94833	-1.33109E-001	1.41565E-004	0.00000E+000	-1.32000E-001	-7.79272E-004	10	..........a	-327.74
	2400	4.00167	-1.01144E-001	1.32140E-004	0.00000E+000	-1.00000E-001	-8.19272E-004	10	..........a	-327.74
	2432	4.055	-6.91290E-002	1.27428E-004	0.00000E+000	-6.80000E-002	-8.09272E-004	10	..........a	-327.74
	2464	4.10833	-3.70840E-002	1.22916E-004	0.00000E+000	-3.60000E-002	-8.39272E-004	10	..........a	-327.74
	2496	4.16167	-5.13900E-003	1.23518E-004	0.00000E+000	-4.00001E-003	-7.59272E-004	10	..........a	-327.74
	2528	4.215	2.68910E-002	1.24771E-004	0.00000E+000	2.80000E-002	-7.99272E-004	10	..........a	-327.74
	2560	4.26833	5.88510E-002	1.25072E-004	0.00000E+000	6.00000E-002	-8.09272E-004	10	..........a	-327.74
	2592	4.32167	9.08360E-002	1.18355E-004	0.00000E+000	9.20000E-002	-8.19272E-004	10	..........a	-327.74
	2624	4.375	1.22856E-001	1.11938E-004	0.00000E+000	1.24000E-001	-8.19272E-004	10	..........a	-327.74
	2656	4.42833	1.54806E-001	1.02113E-004	0.00000E+000	1.56000E-001	-7.79272E-004	10	..........a	-327.74
	2688	4.48167	1.86791E-001	9.67988E-005	0.00000E+000	1.88000E-001	-7.59272E-004	10	..........a	-327.74
	2720	4.535	2.18776E-001	8.96804E-005	0.00000E+000	2.20000E-001	-8.19272E-004	10	..........a	-327.74
	2752	4.58833	2.50781E-001	8.63217E-005	0.00000E+000	2.52000E-001	-7.79272E-004	10	..........a	-327.74
	2784	4.64167	2.82746E-001	8.27124E-005	0.00000E+000	2.84000E-001	-8.09272E-004	10	..........a	-327.74
	2816	4.695	3.14741E-001	8.00555E-005	0.00000E+000	3.16000E-001	-7.49272E-004	10	..........a	-327.74
	2848	4.74833	3.46761E-001	7.77495E-005	0.00000E+000	3.48000E-001	-8.49272E-004	10	..........a	-327.74
	2880	4.80167	3.78766E-001	7.74487E-005	0.00000E+000	3.80000E-001	-8.59272E-004	10	..........a	-327.74
	2912	4.855	4.10726E-001	7.37391E-005	0.00000E+000	4.12000E-001	-8.29272E-004	10	..........a	-327.74
	2944	4.90833	4.42716E-001	7.20347E-005	0.00000E+000	4.44000E-001	-7.59272E-004	10	..........a	-327.74
	2976	4.96167	4.74706E-001	6.97789E-005	0.00000E+000	4.76000E-001	-7.89272E-004	10	..........a	-327.74
	3000	5.00167	4.98691E-001	6.84254E-005	0.00000E+000	5.00000E-001	-7.59272E-004	10	..........a	-327.74
CURVE2	TABLE
	Pt	T	Vf	Im	Vu	Sig	Ach	IERange	Over	Temp
	#	s	V vs. Ref.	A	V	V	V	#	bits	deg C
	3001	5.00333	4.98641E-001	6.71722E-005	0.00000E+000	5.00000E-001	-7.89272E-004	10	..........a	-327.74