File: data/02-SI/Figures_S9_S11_RDE/14btmapaq-rde/1mkcl-5mmolar14btmapaq-nitrogen-7000mvpers.DTA
EXPLAIN
TAG	CV
TITLE	LABEL	Cyclic Voltammetry	Test &Identifier
DATE	LABEL	1/31/2023	Date
TIME	LABEL	14:06:11	Time
NOTES	NOTES	1	&Notes...

PSTAT	PSTAT	REF3000-21108	Potentiostat
VINIT	POTEN	5.00000E-001	F	Initial &E (V)
VLIMIT1	POTEN	-1.00000E+000	F	Scan Limit &1 (V)
VLIMIT2	POTEN	5.00000E-001	F	Scan Limit &2 (V)
VFINAL	POTEN	5.00000E-001	F	Final &E (V)
SCANRATE	QUANT	6.66665E+003	&Scan Rate (mV/s)
STEPSIZE	QUANT	1.00000E+000	St&ep Size (mV)
CYCLES	IQUANT	1	C&ycles (#)
IMODE	SELECTOR	1	I/E Range &Mode
IRANGE	QUANT	1.00000E+001	&Max Current (mA)
AREA	QUANT	1.00000E+000	Electrode &Area (cm^2)
ELECTRODETYPE	SELECTOR	0	Electrode Type
STRIPPING	TOGGLE	F	Used for Stripping
POLARITY	TOGGLE	F	Signal Polarity
CONDIT	TWOPARAM	F	1.50000E+001	0.00000E+000	Conditionin&g	Time(s)	E(V)
DELAY	TWOPARAM	F	5.00000E+000	0.00000E+000	Init. De&lay	Time(s)	Stab.(mV/s)
EQDELAY	QUANT	0.00000E+000	Equil. &Time (s)
IRCOMP	SELECTOR	0	IRCom&p
PFCOR	QUANT	5.00000E+001	PF Corr. (ohm)
SAMPLINGMODE	SELECTOR	1	Sampling &Mode
EOC	QUANT	0	Open Circuit (V)
PSTATMODEL	IQUANT	5	Pstat Model
PSTATSECTION	LABEL	REF3000-21108	Pstat Section
PSTATSERIALNO	LABEL	21108	Pstat Serial Number
CTRLMODE	IQUANT	1	Control Mode
ELECTROMETER	IQUANT	0	RE=0 or CS=1
IESTAB	IQUANT	2	I/E Stability
CASPEED	IQUANT	4	Control Amp Speed
CONVENTION	IQUANT	1	Current Convention
ICHRANGE	IQUANT	2	Ich Range
ICHRANGEMODE	TOGGLE	F	Ich Auto Range
ICHOFFSETENABLE	TOGGLE	F	Ich Offset Enable
ICHOFFSET	QUANT	0	Ich Offset (V)
ICHFILTER	IQUANT	1	Ich Filter
VCHRANGE	IQUANT	2	Vch Range
VCHRANGEMODE	TOGGLE	F	Vch Auto Range
VCHOFFSETENABLE	TOGGLE	F	Vch Offset Enable
VCHOFFSET	QUANT	0	Vch Offset (V)
VCHFILTER	IQUANT	1	Vch Filter
ACHRANGE	IQUANT	2	Ach Range
ACHOFFSETENABLE	TOGGLE	F	Ach Offset Enable
ACHOFFSET	QUANT	0	Ach Offset (V)
ACHFILTER	IQUANT	0	Ach Filter
IERANGELOWERLIMIT	IQUANT	2	I/E Range Lower Limit
IERANGEMODE	TOGGLE	F	I/E AutoRange
IERANGE	IQUANT	10	I/E Range
POSFEEDENABLE	TOGGLE	F	Positive Feedback IR Comp
POSFEEDRESISTANCE	QUANT	0	Positive Feedback Resistance (ohm)
ACHSELECT	IQUANT	0	Ach Select
SENSECABLEID	IQUANT	14	Sense Cable ID
PWRCABLEID	IQUANT	7	Power Cable ID
DCCALDATE	LABEL	11/9/2022	DC Calibration Date
ACCALDATE	LABEL	11/9/2022	AC Calibration Date
THERMOSELECT	IQUANT	1	Thermo Select
FRAMEWORKVERSION	LABEL	7.8.2	Framework Version
INSTRUMENTVERSION	LABEL	4.40	Instrument Version
COMPLIANCEVOLTAGE	IQUANT	0	Compliance Voltage
CURVE1	TABLE
	Pt	T	Vf	Im	Vu	Sig	Ach	IERange	Over	Temp
	#	s	V vs. Ref.	A	V	V	V	#	bits	deg C
	0	0.00015	4.98591E-001	2.31082E-005	0.00000E+000	5.00000E-001	-8.29272E-004	10	...........	-0.07
	30	0.00465	4.66891E-001	-9.31927E-005	0.00000E+000	4.68500E-001	-7.29272E-004	10	...........	-0.07
	60	0.00915	4.35591E-001	-1.12242E-004	0.00000E+000	4.37000E-001	-7.29272E-004	10	...........	-0.07
	90	0.01365	4.03991E-001	-1.18258E-004	0.00000E+000	4.05500E-001	-7.29272E-004	10	...........	-0.07
	120	0.01815	3.72991E-001	-1.27281E-004	0.00000E+000	3.74000E-001	-8.29272E-004	10	...........	-0.07
	150	0.02265	3.41291E-001	-1.38309E-004	0.00000E+000	3.42500E-001	-7.29272E-004	10	...........	-0.07
	180	0.02715	3.09591E-001	-1.45328E-004	0.00000E+000	3.11000E-001	-7.29272E-004	10	...........	-0.07
	210	0.03165	2.78091E-001	-1.50341E-004	0.00000E+000	2.79500E-001	-6.29272E-004	10	...........	-0.07
	240	0.03615	2.46691E-001	-1.60367E-004	0.00000E+000	2.48000E-001	-6.29272E-004	10	...........	-0.07
	270	0.04065	2.15191E-001	-1.69390E-004	0.00000E+000	2.16500E-001	-8.29272E-004	10	...........	-0.07
	300	0.04515	1.83591E-001	-1.73400E-004	0.00000E+000	1.85000E-001	-7.29272E-004	10	...........	-0.07
	330	0.04965	1.52191E-001	-1.80418E-004	0.00000E+000	1.53500E-001	-7.29272E-004	10	...........	-0.07
	360	0.05415	1.20791E-001	-1.85431E-004	0.00000E+000	1.22000E-001	-6.29272E-004	10	...........	-0.07
	390	0.05865	8.91910E-002	-1.89442E-004	0.00000E+000	9.05000E-002	-7.29272E-004	10	...........	-0.07
	420	0.06315	5.77910E-002	-1.86434E-004	0.00000E+000	5.90000E-002	-8.29272E-004	10	...........	-0.07
	450	0.06765	2.60910E-002	-1.89442E-004	0.00000E+000	2.75000E-002	-6.29272E-004	10	...........	-0.07
	480	0.07215	-5.20900E-003	-1.87437E-004	0.00000E+000	-4.00001E-003	-7.29272E-004	10	...........	-0.07
	510	0.07665	-3.66090E-002	-1.85431E-004	0.00000E+000	-3.55000E-002	-7.29272E-004	10	...........	-0.07
	540	0.08115	-6.83090E-002	-1.88439E-004	0.00000E+000	-6.70000E-002	-7.29272E-004	10	...........	-0.07
	570	0.08565	-9.96090E-002	-1.82424E-004	0.00000E+000	-9.85000E-002	-7.29272E-004	10	...........	-0.07
	600	0.09015	-1.31009E-001	-1.82424E-004	0.00000E+000	-1.30000E-001	-6.29272E-004	10	...........	-0.07
	630	0.09465	-1.62609E-001	-1.82424E-004	0.00000E+000	-1.61500E-001	-7.29272E-004	10	...........	-0.07
	660	0.09915	-1.94209E-001	-1.81421E-004	0.00000E+000	-1.93000E-001	-7.29272E-004	10	...........	-0.07
	690	0.10365	-2.25609E-001	-1.84429E-004	0.00000E+000	-2.24500E-001	-8.29272E-004	10	...........	-0.07
	720	0.10815	-2.57209E-001	-1.86434E-004	0.00000E+000	-2.56000E-001	-6.29272E-004	10	...........	-0.07
	750	0.11265	-2.88509E-001	-1.92450E-004	0.00000E+000	-2.87500E-001	-8.29272E-004	10	...........	-0.07
	780	0.11715	-3.20209E-001	-2.08491E-004	0.00000E+000	-3.19000E-001	-8.29272E-004	10	...........	-0.07
	810	0.12165	-3.51609E-001	-2.27540E-004	0.00000E+000	-3.50500E-001	-6.29272E-004	10	...........	-0.07
	840	0.12615	-3.83009E-001	-2.54610E-004	0.00000E+000	-3.82000E-001	-7.29272E-004	10	...........	-0.07
	870	0.13065	-4.14409E-001	-3.14766E-004	0.00000E+000	-4.13500E-001	-7.29272E-004	10	...........	-0.07
	900	0.13515	-4.45909E-001	-4.57134E-004	0.00000E+000	-4.45000E-001	-7.29272E-004	10	...........	-0.07
	930	0.13965	-4.77209E-001	-7.32848E-004	0.00000E+000	-4.76500E-001	-6.29272E-004	10	...........	-0.07
	960	0.14415	-5.09009E-001	-1.11584E-003	0.00000E+000	-5.08000E-001	-7.29272E-004	10	...........	-0.07
	990	0.14865	-5.40409E-001	-1.64421E-003	0.00000E+000	-5.39500E-001	-7.29272E-004	10	...........	-0.07
	1020	0.15315	-5.72309E-001	-2.37610E-003	0.00000E+000	-5.71000E-001	-8.29272E-004	10	...........	-0.07
	1050	0.15765	-6.03409E-001	-3.03480E-003	0.00000E+000	-6.02500E-001	-7.29272E-004	10	...........	-0.07
	1080	0.16215	-6.35009E-001	-3.21728E-003	0.00000E+000	-6.34000E-001	-7.29272E-004	10	...........	-0.07
	1110	0.16665	-6.66409E-001	-2.89043E-003	0.00000E+000	-6.65500E-001	-7.29272E-004	10	...........	-0.07
	1140	0.17115	-6.98009E-001	-2.54353E-003	0.00000E+000	-6.97000E-001	-6.29272E-004	10	...........	-0.07
	1170	0.17565	-7.29409E-001	-2.29489E-003	0.00000E+000	-7.28500E-001	-7.29272E-004	10	...........	-0.07
	1200	0.18015	-7.60909E-001	-2.07432E-003	0.00000E+000	-7.60000E-001	-7.29272E-004	10	...........	-0.07
	1230	0.18465	-7.92409E-001	-1.87982E-003	0.00000E+000	-7.91500E-001	-6.29272E-004	10	...........	-0.07
	1260	0.18915	-8.23809E-001	-1.70937E-003	0.00000E+000	-8.23000E-001	-6.29272E-004	10	...........	-0.07
	1290	0.19365	-8.55209E-001	-1.58204E-003	0.00000E+000	-8.54500E-001	-7.29272E-004	10	...........	-0.07
	1320	0.19815	-8.86809E-001	-1.45973E-003	0.00000E+000	-8.86000E-001	-7.29272E-004	10	...........	-0.07
	1350	0.20265	-9.18209E-001	-1.36448E-003	0.00000E+000	-9.17500E-001	-7.29272E-004	10	...........	-0.07
	1380	0.20715	-9.49809E-001	-1.29731E-003	0.00000E+000	-9.49000E-001	-8.29272E-004	10	...........	-0.07
	1410	0.21165	-9.81209E-001	-1.23214E-003	0.00000E+000	-9.80500E-001	-7.29272E-004	10	...........	-0.07
	1440	0.21615	-9.89709E-001	-8.55164E-004	0.00000E+000	-9.88900E-001	-6.29272E-004	10	...........	-0.07
	1470	0.22065	-9.58209E-001	-6.75700E-004	0.00000E+000	-9.57400E-001	-8.29272E-004	10	...........	-0.07
	1500	0.22515	-9.26709E-001	-5.95492E-004	0.00000E+000	-9.25900E-001	-8.29272E-004	10	...........	-0.07
	1530	0.22965	-8.95309E-001	-5.54386E-004	0.00000E+000	-8.94400E-001	-6.29272E-004	10	...........	-0.07
	1560	0.23415	-8.63709E-001	-5.18293E-004	0.00000E+000	-8.62900E-001	-5.29272E-004	10	...........	-0.07
	1590	0.23865	-8.32009E-001	-4.88215E-004	0.00000E+000	-8.31400E-001	-8.29272E-004	10	...........	-0.07
	1620	0.24315	-8.00409E-001	-4.55129E-004	0.00000E+000	-7.99900E-001	-6.29272E-004	10	...........	-0.07
	1650	0.24765	-7.69309E-001	-4.28059E-004	0.00000E+000	-7.68400E-001	-8.29272E-004	10	...........	-0.07
	1680	0.25215	-7.37809E-001	-3.97981E-004	0.00000E+000	-7.36900E-001	-6.29272E-004	10	...........	-0.07
	1710	0.25665	-7.06309E-001	-3.58880E-004	0.00000E+000	-7.05400E-001	-7.29272E-004	10	...........	-0.07
	1740	0.26115	-6.74709E-001	-3.12761E-004	0.00000E+000	-6.73900E-001	-6.29272E-004	10	...........	-0.07
	1770	0.26565	-6.43009E-001	-2.24533E-004	0.00000E+000	-6.42400E-001	-7.29272E-004	10	...........	-0.07
	1800	0.27015	-6.11809E-001	-7.31409E-005	0.00000E+000	-6.10900E-001	-7.29272E-004	10	...........	-0.07
	1830	0.27465	-5.80409E-001	1.93549E-004	0.00000E+000	-5.79400E-001	-7.29272E-004	10	...........	-0.07
	1860	0.27915	-5.48609E-001	5.91579E-004	0.00000E+000	-5.47900E-001	-8.29272E-004	10	...........	-0.07
	1890	0.28365	-5.17209E-001	1.01969E-003	0.00000E+000	-5.16400E-001	-8.29272E-004	10	...........	-0.07
	1920	0.28815	-4.86009E-001	1.35856E-003	0.00000E+000	-4.84900E-001	-6.29272E-004	10	...........	-0.07
	1950	0.29265	-4.54309E-001	1.54204E-003	0.00000E+000	-4.53400E-001	-8.29272E-004	10	...........	-0.07
	1980	0.29715	-4.23009E-001	1.50996E-003	0.00000E+000	-4.21900E-001	-8.29272E-004	10	...........	-0.07
	2010	0.30165	-3.91509E-001	1.40167E-003	0.00000E+000	-3.90400E-001	-8.29272E-004	10	...........	-0.07
	2040	0.30615	-3.59809E-001	1.30342E-003	0.00000E+000	-3.58900E-001	-8.29272E-004	10	...........	-0.07
	2070	0.31065	-3.28409E-001	1.22923E-003	0.00000E+000	-3.27400E-001	-8.29272E-004	10	...........	-0.07
	2100	0.31515	-2.96909E-001	1.16506E-003	0.00000E+000	-2.95900E-001	-6.29272E-004	10	...........	-0.07
	2130	0.31965	-2.65409E-001	1.10491E-003	0.00000E+000	-2.64400E-001	-8.29272E-004	10	...........	-0.07
	2160	0.32415	-2.33909E-001	1.03573E-003	0.00000E+000	-2.32900E-001	-8.29272E-004	10	...........	-0.07
	2190	0.32865	-2.02409E-001	9.59531E-004	0.00000E+000	-2.01400E-001	-6.29272E-004	10	...........	-0.07
	2220	0.33315	-1.71009E-001	8.88347E-004	0.00000E+000	-1.69900E-001	-6.29272E-004	10	...........	-0.07
	2250	0.33765	-1.39509E-001	8.22176E-004	0.00000E+000	-1.38400E-001	-8.29272E-004	10	...........	-0.07
	2280	0.34215	-1.07809E-001	7.69038E-004	0.00000E+000	-1.06900E-001	-8.29272E-004	10	...........	-0.07
	2310	0.34665	-7.64090E-002	7.33947E-004	0.00000E+000	-7.54000E-002	-9.29272E-004	10	...........	-0.07
	2340	0.35115	-4.50090E-002	7.10888E-004	0.00000E+000	-4.39000E-002	-6.29272E-004	10	...........	-0.07
	2370	0.35565	-1.35090E-002	7.05875E-004	0.00000E+000	-1.24000E-002	-8.29272E-004	10	...........	-0.07
	2400	0.36015	1.79910E-002	7.26929E-004	0.00000E+000	1.91000E-002	-8.29272E-004	10	...........	-0.07
	2430	0.36465	4.97910E-002	7.53999E-004	0.00000E+000	5.06000E-002	-7.29272E-004	10	...........	-0.07
	2460	0.36915	8.08910E-002	7.92098E-004	0.00000E+000	8.21000E-002	-7.29272E-004	10	...........	-0.07
	2490	0.37365	1.12591E-001	8.27188E-004	0.00000E+000	1.13600E-001	-6.29272E-004	10	...........	-0.07
	2520	0.37815	1.43891E-001	8.38217E-004	0.00000E+000	1.45100E-001	-8.29272E-004	10	...........	-0.07
	2550	0.38265	1.75591E-001	7.96108E-004	0.00000E+000	1.76600E-001	-8.29272E-004	10	...........	-0.07
	2580	0.38715	2.06991E-001	7.23921E-004	0.00000E+000	2.08100E-001	-6.29272E-004	10	...........	-0.07
	2610	0.39165	2.38291E-001	6.57750E-004	0.00000E+000	2.39600E-001	-8.29272E-004	10	...........	-0.07
	2640	0.39615	2.69891E-001	6.03610E-004	0.00000E+000	2.71100E-001	-7.29272E-004	10	...........	-0.07
	2670	0.40065	3.01191E-001	5.54483E-004	0.00000E+000	3.02600E-001	-6.29272E-004	10	...........	-0.07
	2700	0.40515	3.32991E-001	5.26410E-004	0.00000E+000	3.34100E-001	-8.29272E-004	10	...........	-0.07
	2730	0.40965	3.64191E-001	5.00343E-004	0.00000E+000	3.65600E-001	-9.29272E-004	10	...........	-0.07
	2760	0.41415	3.95691E-001	4.86307E-004	0.00000E+000	3.97100E-001	-8.29272E-004	10	...........	-0.07
	2790	0.41865	4.27391E-001	4.82296E-004	0.00000E+000	4.28600E-001	-8.29272E-004	10	...........	-0.07
	2820	0.42315	4.58691E-001	4.73273E-004	0.00000E+000	4.60100E-001	-9.29272E-004	10	...........	-0.07
	2850	0.42765	4.90191E-001	4.68260E-004	0.00000E+000	4.91600E-001	-7.29272E-004	10	...........	-0.07
	2858	0.42885	4.98591E-001	4.60239E-004	0.00000E+000	5.00000E-001	-9.29272E-004	10	...........	-0.07
CURVE2	TABLE
	Pt	T	Vf	Im	Vu	Sig	Ach	IERange	Over	Temp
	#	s	V vs. Ref.	A	V	V	V	#	bits	deg C
	2859	0.429	4.98691E-001	4.13117E-004	0.00000E+000	5.00000E-001	-8.29272E-004	10	...........	-0.07