File: data/02-SI/Figures_S9_S11_RDE/14btmapaq-rde/1mkcl--5mmolar14btmapaq-nitrogen-rde-400-50mvpers.DTA
EXPLAIN
TAG	LSV
TITLE	LABEL	Linear Sweep Voltammetry	Test &Identifier
DATE	LABEL	1/31/2023	Date
TIME	LABEL	13:08:55	Time
NOTES	NOTES	1	&Notes...

PSTAT	PSTAT	REF3000-21108	Potentiostat
VINIT	POTEN	3.00000E-001	F	&Initial E (V)
VFINAL	POTEN	-1.00000E+000	F	&Final E (V)
SCANRATE	QUANT	4.99999E+001	&Scan Rate (mV/s)
STEPSIZE	QUANT	1.00000E-001	St&ep Size (mV)
IMODE	SELECTOR	0	I/E Range &Mode
IRANGE	QUANT	1.00000E+002	&Max Current (mA)
AREA	QUANT	1.00000E+000	Electrode &Area (cm^2)
ELECTRODETYPE	SELECTOR	0	Electrode Type
STRIPPING	TOGGLE	F	Used for Stripping
POLARITY	TOGGLE	F	Signal Polarity
CONDIT	TWOPARAM	F	1.50000E+001	0.00000E+000	Conditionin&g	Time(s)	E(V)
DELAY	TWOPARAM	F	3.00000E+001	0.00000E+000	Init. De&lay	Time(s)	Stab.(mV/s)
EQDELAY	QUANT	0.00000E+000	Equil. &Time (s)
IRCOMP	SELECTOR	0	IRCom&p
PFCOR	QUANT	5.00000E+001	PF Corr. (ohm)
SAMPLINGMODE	SELECTOR	1	Sampling &Mode
EOC	QUANT	0	Open Circuit (V)
PSTATMODEL	IQUANT	5	Pstat Model
PSTATSECTION	LABEL	REF3000-21108	Pstat Section
PSTATSERIALNO	LABEL	21108	Pstat Serial Number
CTRLMODE	IQUANT	1	Control Mode
ELECTROMETER	IQUANT	0	RE=0 or CS=1
IESTAB	IQUANT	2	I/E Stability
CASPEED	IQUANT	4	Control Amp Speed
CONVENTION	IQUANT	1	Current Convention
ICHRANGE	IQUANT	2	Ich Range
ICHRANGEMODE	TOGGLE	F	Ich Auto Range
ICHOFFSETENABLE	TOGGLE	F	Ich Offset Enable
ICHOFFSET	QUANT	0	Ich Offset (V)
ICHFILTER	IQUANT	2	Ich Filter
VCHRANGE	IQUANT	2	Vch Range
VCHRANGEMODE	TOGGLE	T	Vch Auto Range
VCHOFFSETENABLE	TOGGLE	F	Vch Offset Enable
VCHOFFSET	QUANT	0	Vch Offset (V)
VCHFILTER	IQUANT	2	Vch Filter
ACHRANGE	IQUANT	2	Ach Range
ACHOFFSETENABLE	TOGGLE	F	Ach Offset Enable
ACHOFFSET	QUANT	0	Ach Offset (V)
ACHFILTER	IQUANT	0	Ach Filter
IERANGELOWERLIMIT	IQUANT	2	I/E Range Lower Limit
IERANGEMODE	TOGGLE	T	I/E AutoRange
IERANGE	IQUANT	11	I/E Range
POSFEEDENABLE	TOGGLE	F	Positive Feedback IR Comp
POSFEEDRESISTANCE	QUANT	0	Positive Feedback Resistance (ohm)
ACHSELECT	IQUANT	0	Ach Select
SENSECABLEID	IQUANT	14	Sense Cable ID
PWRCABLEID	IQUANT	7	Power Cable ID
DCCALDATE	LABEL	11/9/2022	DC Calibration Date
ACCALDATE	LABEL	11/9/2022	AC Calibration Date
THERMOSELECT	IQUANT	1	Thermo Select
FRAMEWORKVERSION	LABEL	7.8.2	Framework Version
INSTRUMENTVERSION	LABEL	4.40	Instrument Version
COMPLIANCEVOLTAGE	IQUANT	0	Compliance Voltage
CURVE	TABLE	13001
	Pt	T	Vf	Im	Vu	Sig	Ach	IERange	Over	Cycle	Temp
	#	s	V vs. Ref.	A	V	V	V	#	bits	#	deg C
	0	0.002	3.00075E-001	-7.63533E-005	0.00000E+000	3.00000E-001	-2.92722E-005	11	..........a	0	-327.74
	137	0.276	2.85347E-001	3.33086E-006	0.00000E+000	2.86300E-001	-4.87606E-004	8	..........a	0	-327.74
	274	0.55	2.71693E-001	2.26136E-006	0.00000E+000	2.72600E-001	-2.87606E-004	8	..........a	0	-327.74
	411	0.824	2.57985E-001	1.81723E-006	0.00000E+000	2.58900E-001	-1.54272E-004	8	..........a	0	-327.74
	548	1.098	2.44322E-001	1.20270E-006	0.00000E+000	2.45200E-001	-1.45939E-004	8	..........a	0	-327.74
	685	1.372	2.30300E-001	1.03188E-006	0.00000E+000	2.31500E-001	-5.20939E-004	8	..........a	0	-327.74
	822	1.646	2.16621E-001	9.98963E-007	0.00000E+000	2.17800E-001	-7.09389E-005	8	..........a	0	-327.74
	959	1.92	2.02938E-001	9.50217E-007	0.00000E+000	2.04100E-001	-3.45939E-004	8	..........a	0	-327.74
	1096	2.194	1.89259E-001	6.68990E-007	0.00000E+000	1.90400E-001	4.06111E-006	8	..........a	0	-327.74
	1233	2.468	1.75537E-001	7.47733E-007	0.00000E+000	1.76700E-001	-2.45939E-004	8	..........a	0	-327.74
	1370	2.742	1.61870E-001	4.85671E-007	0.00000E+000	1.63000E-001	-3.54272E-004	8	..........a	0	-327.74
	1507	3.016	1.48143E-001	3.81096E-007	0.00000E+000	1.49300E-001	-3.20939E-004	8	..........a	0	-327.74
	1644	3.29	1.34477E-001	1.84862E-007	0.00000E+000	1.35600E-001	-2.37606E-004	8	..........a	0	-327.74
	1781	3.564	1.20778E-001	-2.29272E-007	0.00000E+000	1.21900E-001	-2.20939E-004	8	..........a	0	-327.74
	1918	3.838	1.07097E-001	6.07050E-008	0.00000E+000	1.08200E-001	-1.79272E-004	8	..........a	0	-327.74
	2055	4.112	9.33910E-002	-5.01194E-008	0.00000E+000	9.45000E-002	-2.70939E-004	8	..........a	0	-327.74
	2192	4.386	7.97001E-002	-1.60944E-007	0.00000E+000	8.08000E-002	-4.59389E-005	8	..........a	0	-327.74
	2329	4.66	6.60043E-002	-1.35946E-007	0.00000E+000	6.71000E-002	-2.12606E-004	8	..........a	0	-327.74
	2466	4.934	5.23218E-002	2.07360E-007	0.00000E+000	5.34000E-002	-2.54272E-004	8	..........a	0	-327.74
	2603	5.208	3.86131E-002	-2.34688E-007	0.00000E+000	3.97000E-002	-1.79272E-004	8	..........a	0	-327.74
	2740	5.482	2.49193E-002	-3.78426E-007	0.00000E+000	2.60000E-002	-3.62606E-004	8	..........a	0	-327.74
	2877	5.756	1.11964E-002	-1.70110E-007	0.00000E+000	1.23000E-002	-2.09389E-005	8	..........a	0	-327.74
	3014	6.03	-2.50923E-003	-4.13424E-007	0.00000E+000	-1.40002E-003	-1.26055E-005	8	..........a	0	-327.74
	3151	6.304	-1.62003E-002	-6.51321E-007	0.00000E+000	-1.51000E-002	4.06111E-006	8	..........a	0	-327.74
	3288	6.578	-2.98369E-002	-2.81767E-007	0.00000E+000	-2.88000E-002	-6.26056E-005	8	..........a	0	-327.74
	3425	6.852	-4.35411E-002	-6.28823E-007	0.00000E+000	-4.25000E-002	1.45728E-004	8	..........a	0	-327.74
	3562	7.126	-5.72432E-002	-5.73411E-007	0.00000E+000	-5.62000E-002	5.40611E-005	8	..........a	0	-327.74
	3699	7.4	-7.09444E-002	-7.57146E-007	0.00000E+000	-6.99000E-002	-1.20939E-004	8	..........a	0	-327.74
	3836	7.674	-8.46299E-002	-6.50071E-007	0.00000E+000	-8.36000E-002	-1.54272E-004	8	..........a	0	-327.74
	3973	7.948	-9.83324E-002	-1.09087E-006	0.00000E+000	-9.73000E-002	-2.20939E-004	8	..........a	0	-327.74
	4110	8.222	-1.12017E-001	-4.66336E-007	0.00000E+000	-1.11000E-001	-1.04272E-004	8	..........a	0	-327.74
	4247	8.496	-1.25714E-001	-9.94210E-007	0.00000E+000	-1.24700E-001	-8.76056E-005	8	..........a	0	-327.74
	4384	8.77	-1.39390E-001	-7.82977E-007	0.00000E+000	-1.38400E-001	1.23945E-005	8	..........a	0	-327.74
	4521	9.044	-1.53099E-001	-6.76736E-007	0.00000E+000	-1.52100E-001	-7.92722E-005	8	..........a	0	-327.74
	4658	9.318	-1.66793E-001	-1.08254E-006	0.00000E+000	-1.65800E-001	-1.62606E-004	8	..........a	0	-327.74
	4795	9.592	-1.80469E-001	-5.76744E-007	0.00000E+000	-1.79500E-001	-1.37606E-004	8	..........a	0	-327.74
	4932	9.866	-1.94184E-001	-7.49230E-007	0.00000E+000	-1.93200E-001	2.90611E-005	8	..........a	0	-327.74
	5069	10.14	-2.07859E-001	-1.02671E-006	0.00000E+000	-2.06900E-001	1.29061E-004	8	..........a	0	-327.74
	5206	10.414	-2.21552E-001	-8.12142E-007	0.00000E+000	-2.20600E-001	-7.09389E-005	8	..........a	0	-327.74
	5343	10.688	-2.35256E-001	-1.23836E-006	0.00000E+000	-2.34300E-001	-4.27222E-006	8	..........a	0	-327.74
	5480	10.962	-2.48934E-001	-1.09629E-006	0.00000E+000	-2.48000E-001	-5.42722E-005	8	..........a	0	-327.74
	5617	11.236	-2.62629E-001	-1.47251E-006	0.00000E+000	-2.61700E-001	4.06111E-006	8	..........a	0	-327.74
	5754	11.51	-2.76011E-001	-1.44251E-006	0.00000E+000	-2.75400E-001	-3.76056E-005	8	..........a	0	-327.74
	5891	11.784	-2.89757E-001	-1.37585E-006	0.00000E+000	-2.89100E-001	2.07278E-005	8	..........a	0	-327.74
	6028	12.058	-3.03411E-001	-1.75832E-006	0.00000E+000	-3.02800E-001	-7.92722E-005	8	..........a	0	-327.74
	6165	12.332	-3.17119E-001	-2.26161E-006	0.00000E+000	-3.16500E-001	-7.09389E-005	8	..........a	0	-327.74
	6302	12.606	-3.30815E-001	-2.75615E-006	0.00000E+000	-3.30200E-001	-2.09389E-005	8	..........a	0	-327.74
	6439	12.88	-3.44494E-001	-3.47859E-006	0.00000E+000	-3.43900E-001	-1.54272E-004	8	..........a	0	-327.74
	6576	13.154	-3.58290E-001	-4.73391E-006	0.00000E+000	-3.57600E-001	-3.12606E-004	8	..........a	0	-327.74
	6713	13.428	-3.71957E-001	-6.61584E-006	0.00000E+000	-3.71300E-001	-2.87606E-004	8	..........a	0	-327.74
	6850	13.702	-3.85648E-001	-1.06176E-005	0.00000E+000	-3.85000E-001	-1.54272E-004	8	..........a	0	-327.74
	6987	13.976	-3.99298E-001	-1.50697E-005	0.00000E+000	-3.98700E-001	-2.29272E-004	8	..........a	0	-327.74
	7124	14.25	-4.12990E-001	-2.13763E-005	0.00000E+000	-4.12400E-001	-6.26056E-005	8	..........a	0	-327.74
	7261	14.524	-4.26740E-001	-3.03823E-005	0.00000E+000	-4.26100E-001	-2.87606E-004	8	..........a	0	-327.74
	7398	14.798	-4.40328E-001	-4.14060E-005	0.00000E+000	-4.39800E-001	-1.12606E-004	8	..........a	0	-327.74
	7535	15.072	-4.53994E-001	-5.65956E-005	0.00000E+000	-4.53500E-001	3.73944E-005	8	..........a	0	-327.74
	7672	15.346	-4.67719E-001	-7.47704E-005	0.00000E+000	-4.67200E-001	-1.29272E-004	8	..........a	0	-327.74
	7809	15.62	-4.81415E-001	-9.67407E-005	0.00000E+000	-4.80900E-001	-1.54272E-004	8	..........a	0	-327.74
	7946	15.894	-4.95015E-001	-1.24172E-004	0.00000E+000	-4.94600E-001	-2.70939E-004	8	..........a	0	-327.74
	8083	16.168	-5.08753E-001	-1.58196E-004	0.00000E+000	-5.08300E-001	-2.04272E-004	8	..........a	0	-327.74
	8220	16.442	-5.22286E-001	-1.97932E-004	0.00000E+000	-5.22000E-001	-9.59389E-005	8	..........a	0	-327.74
	8357	16.716	-5.36003E-001	-2.41152E-004	0.00000E+000	-5.35700E-001	-1.62606E-004	8	..........a	0	-327.74
	8494	16.99	-5.49800E-001	-2.82597E-004	0.00000E+000	-5.49400E-001	7.07278E-005	9	..........a	0	-327.74
	8631	17.264	-5.63487E-001	-3.08965E-004	0.00000E+000	-5.63100E-001	9.57278E-005	9	..........a	0	-327.74
	8768	17.538	-5.77221E-001	-3.20486E-004	0.00000E+000	-5.76800E-001	2.07278E-005	9	..........a	0	-327.74
	8905	17.812	-5.90896E-001	-3.21388E-004	0.00000E+000	-5.90500E-001	-7.09389E-005	9	..........a	0	-327.74
	9042	18.086	-6.04671E-001	-3.20590E-004	0.00000E+000	-6.04200E-001	-2.04272E-004	9	..........a	0	-327.74
	9179	18.36	-6.18254E-001	-3.19809E-004	0.00000E+000	-6.17900E-001	-1.70939E-004	9	..........a	0	-327.74
	9316	18.634	-6.31996E-001	-3.21284E-004	0.00000E+000	-6.31600E-001	-5.42722E-005	9	..........a	0	-327.74
	9453	18.908	-6.45692E-001	-3.21977E-004	0.00000E+000	-6.45300E-001	2.90611E-005	9	..........a	0	-327.74
	9590	19.182	-6.59392E-001	-3.22086E-004	0.00000E+000	-6.59000E-001	4.57278E-005	9	..........a	0	-327.74
	9727	19.456	-6.73012E-001	-3.21200E-004	0.00000E+000	-6.72700E-001	3.73944E-005	9	..........a	0	-327.74
	9864	19.73	-6.86775E-001	-3.21008E-004	0.00000E+000	-6.86400E-001	-6.26056E-005	9	..........a	0	-327.74
	10001	20.004	-7.00496E-001	-3.19491E-004	0.00000E+000	-7.00100E-001	-1.26055E-005	9	..........a	0	-327.74
	10138	20.278	-7.14179E-001	-3.19052E-004	0.00000E+000	-7.13800E-001	-7.09389E-005	9	..........a	0	-327.74
	10275	20.552	-7.27950E-001	-3.20686E-004	0.00000E+000	-7.27500E-001	-1.12606E-004	9	..........a	0	-327.74
	10412	20.826	-7.41629E-001	-3.21305E-004	0.00000E+000	-7.41200E-001	-1.95939E-004	9	..........a	0	-327.74
	10549	21.1	-7.55292E-001	-3.21175E-004	0.00000E+000	-7.54900E-001	-3.76056E-005	9	..........a	0	-327.74
	10686	21.374	-7.68937E-001	-3.19094E-004	0.00000E+000	-7.68600E-001	6.23944E-005	9	..........a	0	-327.74
	10823	21.648	-7.82700E-001	-3.18885E-004	0.00000E+000	-7.82300E-001	-1.95939E-004	9	..........a	0	-327.74
	10960	21.922	-7.96350E-001	-3.19487E-004	0.00000E+000	-7.96000E-001	4.57278E-005	9	..........a	0	-327.74
	11097	22.196	-8.10033E-001	-3.21029E-004	0.00000E+000	-8.09700E-001	-4.59389E-005	9	..........a	0	-327.74
	11234	22.47	-8.23683E-001	-3.21693E-004	0.00000E+000	-8.23400E-001	-4.27222E-006	9	..........a	0	-327.74
	11371	22.744	-8.37396E-001	-3.21534E-004	0.00000E+000	-8.37100E-001	3.73944E-005	9	..........a	0	-327.74
	11508	23.018	-8.51167E-001	-3.20686E-004	0.00000E+000	-8.50800E-001	-1.70939E-004	9	..........a	0	-327.74
	11645	23.292	-8.64829E-001	-3.20636E-004	0.00000E+000	-8.64500E-001	-2.92722E-005	9	..........a	0	-327.74
	11782	23.566	-8.78467E-001	-3.21091E-004	0.00000E+000	-8.78200E-001	7.90611E-005	9	..........a	0	-327.74
	11919	23.84	-8.92212E-001	-3.20364E-004	0.00000E+000	-8.91900E-001	1.20728E-004	9	..........a	0	-327.74
	12056	24.114	-9.05883E-001	-3.18572E-004	0.00000E+000	-9.05600E-001	-2.92722E-005	9	..........a	0	-327.74
	12193	24.388	-9.19567E-001	-3.20565E-004	0.00000E+000	-9.19300E-001	-7.92722E-005	9	..........a	0	-327.74
	12330	24.662	-9.33275E-001	-3.19888E-004	0.00000E+000	-9.33000E-001	-1.54272E-004	9	..........a	0	-327.74
	12467	24.936	-9.46967E-001	-3.20703E-004	0.00000E+000	-9.46700E-001	-3.76056E-005	9	..........a	0	-327.74
	12604	25.21	-9.60654E-001	-3.22132E-004	0.00000E+000	-9.60400E-001	4.06111E-006	9	..........a	0	-327.74
	12741	25.484	-9.74346E-001	-3.20598E-004	0.00000E+000	-9.74100E-001	-2.92722E-005	9	..........a	0	-327.74
	12878	25.758	-9.87996E-001	-3.19591E-004	0.00000E+000	-9.87800E-001	4.57278E-005	9	..........a	0	-327.74
	13000	26.002	-1.00027E+000	-3.20176E-004	0.00000E+000	-1.00000E+000	-2.09389E-005	9	..........a	0	-327.74