File: data/02-SI/Figures_S9_S11_RDE/14btmapaq-rde/1mkcl-5mmolar14btmapaq-nitrogen-500mvpers.DTA
EXPLAIN
TAG	CV
TITLE	LABEL	Cyclic Voltammetry	Test &Identifier
DATE	LABEL	1/31/2023	Date
TIME	LABEL	14:03:02	Time
NOTES	NOTES	1	&Notes...

PSTAT	PSTAT	REF3000-21108	Potentiostat
VINIT	POTEN	5.00000E-001	F	Initial &E (V)
VLIMIT1	POTEN	-1.00000E+000	F	Scan Limit &1 (V)
VLIMIT2	POTEN	5.00000E-001	F	Scan Limit &2 (V)
VFINAL	POTEN	5.00000E-001	F	Final &E (V)
SCANRATE	QUANT	4.99999E+002	&Scan Rate (mV/s)
STEPSIZE	QUANT	1.00000E+000	St&ep Size (mV)
CYCLES	IQUANT	1	C&ycles (#)
IMODE	SELECTOR	1	I/E Range &Mode
IRANGE	QUANT	1.00000E+001	&Max Current (mA)
AREA	QUANT	1.00000E+000	Electrode &Area (cm^2)
ELECTRODETYPE	SELECTOR	0	Electrode Type
STRIPPING	TOGGLE	F	Used for Stripping
POLARITY	TOGGLE	F	Signal Polarity
CONDIT	TWOPARAM	F	1.50000E+001	0.00000E+000	Conditionin&g	Time(s)	E(V)
DELAY	TWOPARAM	F	5.00000E+000	0.00000E+000	Init. De&lay	Time(s)	Stab.(mV/s)
EQDELAY	QUANT	0.00000E+000	Equil. &Time (s)
IRCOMP	SELECTOR	0	IRCom&p
PFCOR	QUANT	5.00000E+001	PF Corr. (ohm)
SAMPLINGMODE	SELECTOR	1	Sampling &Mode
EOC	QUANT	0	Open Circuit (V)
PSTATMODEL	IQUANT	5	Pstat Model
PSTATSECTION	LABEL	REF3000-21108	Pstat Section
PSTATSERIALNO	LABEL	21108	Pstat Serial Number
CTRLMODE	IQUANT	1	Control Mode
ELECTROMETER	IQUANT	0	RE=0 or CS=1
IESTAB	IQUANT	2	I/E Stability
CASPEED	IQUANT	4	Control Amp Speed
CONVENTION	IQUANT	1	Current Convention
ICHRANGE	IQUANT	2	Ich Range
ICHRANGEMODE	TOGGLE	F	Ich Auto Range
ICHOFFSETENABLE	TOGGLE	F	Ich Offset Enable
ICHOFFSET	QUANT	0	Ich Offset (V)
ICHFILTER	IQUANT	2	Ich Filter
VCHRANGE	IQUANT	2	Vch Range
VCHRANGEMODE	TOGGLE	F	Vch Auto Range
VCHOFFSETENABLE	TOGGLE	F	Vch Offset Enable
VCHOFFSET	QUANT	0	Vch Offset (V)
VCHFILTER	IQUANT	2	Vch Filter
ACHRANGE	IQUANT	2	Ach Range
ACHOFFSETENABLE	TOGGLE	F	Ach Offset Enable
ACHOFFSET	QUANT	0	Ach Offset (V)
ACHFILTER	IQUANT	0	Ach Filter
IERANGELOWERLIMIT	IQUANT	2	I/E Range Lower Limit
IERANGEMODE	TOGGLE	F	I/E AutoRange
IERANGE	IQUANT	10	I/E Range
POSFEEDENABLE	TOGGLE	F	Positive Feedback IR Comp
POSFEEDRESISTANCE	QUANT	0	Positive Feedback Resistance (ohm)
ACHSELECT	IQUANT	0	Ach Select
SENSECABLEID	IQUANT	14	Sense Cable ID
PWRCABLEID	IQUANT	7	Power Cable ID
DCCALDATE	LABEL	11/9/2022	DC Calibration Date
ACCALDATE	LABEL	11/9/2022	AC Calibration Date
THERMOSELECT	IQUANT	1	Thermo Select
FRAMEWORKVERSION	LABEL	7.8.2	Framework Version
INSTRUMENTVERSION	LABEL	4.40	Instrument Version
COMPLIANCEVOLTAGE	IQUANT	0	Compliance Voltage
CURVE1	TABLE
	Pt	T	Vf	Im	Vu	Sig	Ach	IERange	Over	Temp
	#	s	V vs. Ref.	A	V	V	V	#	bits	deg C
	0	0.002	4.98810E-001	8.62692E-005	0.00000E+000	5.00000E-001	-7.54272E-004	10	..........a	-327.74
	31	0.064	4.67789E-001	5.35178E-005	0.00000E+000	4.69000E-001	-7.95939E-004	10	..........a	-327.74
	62	0.126	4.36781E-001	4.10271E-005	0.00000E+000	4.38000E-001	-7.12606E-004	10	..........a	-327.74
	93	0.188	4.05923E-001	3.32988E-005	0.00000E+000	4.07000E-001	-7.54272E-004	10	..........a	-327.74
	124	0.25	3.74885E-001	2.82023E-005	0.00000E+000	3.76000E-001	-8.20939E-004	10	..........a	-327.74
	155	0.312	3.43869E-001	2.39830E-005	0.00000E+000	3.45000E-001	-7.95939E-004	10	..........a	-327.74
	186	0.374	3.12839E-001	2.08499E-005	0.00000E+000	3.14000E-001	-8.45939E-004	10	..........a	-327.74
	217	0.436	2.81844E-001	1.82181E-005	0.00000E+000	2.83000E-001	-8.37606E-004	10	..........a	-327.74
	248	0.498	2.50869E-001	1.55863E-005	0.00000E+000	2.52000E-001	-7.54272E-004	10	..........a	-327.74
	279	0.56	2.19785E-001	1.40824E-005	0.00000E+000	2.21000E-001	-7.87605E-004	10	..........a	-327.74
	310	0.622	1.88898E-001	1.22861E-005	0.00000E+000	1.90000E-001	-7.79272E-004	10	..........a	-327.74
	341	0.684	1.57981E-001	1.07822E-005	0.00000E+000	1.59000E-001	-7.70939E-004	10	..........a	-327.74
	372	0.746	1.26989E-001	9.44541E-006	0.00000E+000	1.28000E-001	-8.29272E-004	10	..........a	-327.74
	403	0.808	9.59769E-002	7.31490E-006	0.00000E+000	9.70000E-002	-7.95939E-004	10	..........a	-327.74
	434	0.87	6.51186E-002	5.76923E-006	0.00000E+000	6.60000E-002	-8.04272E-004	10	..........a	-327.74
	465	0.932	3.39394E-002	4.18179E-006	0.00000E+000	3.50000E-002	-7.95939E-004	10	..........a	-327.74
	496	0.994	2.96440E-003	2.88678E-006	0.00000E+000	4.00001E-003	-8.54272E-004	10	..........a	-327.74
	527	1.056	-2.79148E-002	1.34111E-006	0.00000E+000	-2.70000E-002	-7.87605E-004	10	..........a	-327.74
	558	1.118	-5.88814E-002	6.72715E-007	0.00000E+000	-5.80000E-002	-7.62605E-004	10	..........a	-327.74
	589	1.18	-8.99439E-002	-3.71653E-007	0.00000E+000	-8.90000E-002	-8.20939E-004	10	..........a	-327.74
	620	1.242	-1.20969E-001	-1.29070E-006	0.00000E+000	-1.20000E-001	-7.79272E-004	10	..........a	-327.74
	651	1.304	-1.51990E-001	-1.79199E-006	0.00000E+000	-1.51000E-001	-7.87605E-004	10	..........a	-327.74
	682	1.366	-1.82915E-001	-2.58572E-006	0.00000E+000	-1.82000E-001	-7.37606E-004	10	..........a	-327.74
	713	1.428	-2.13956E-001	-4.08961E-006	0.00000E+000	-2.13000E-001	-7.54272E-004	10	..........a	-327.74
	744	1.49	-2.44873E-001	-6.17834E-006	0.00000E+000	-2.44000E-001	-7.87605E-004	10	..........a	-327.74
	775	1.552	-2.75886E-001	-8.72660E-006	0.00000E+000	-2.75000E-001	-7.54272E-004	10	..........a	-327.74
	806	1.614	-3.06848E-001	-1.08989E-005	0.00000E+000	-3.06000E-001	-8.04272E-004	10	..........a	-327.74
	837	1.676	-3.37840E-001	-1.47004E-005	0.00000E+000	-3.37000E-001	-7.70939E-004	10	..........a	-327.74
	868	1.738	-3.68927E-001	-1.91285E-005	0.00000E+000	-3.68000E-001	-7.70939E-004	10	..........a	-327.74
	899	1.8	-3.99865E-001	-3.04495E-005	0.00000E+000	-3.99000E-001	-8.45939E-004	10	..........a	-327.74
	930	1.862	-4.30848E-001	-6.15717E-005	0.00000E+000	-4.30000E-001	-8.12605E-004	10	..........a	-327.74
	961	1.924	-4.61823E-001	-1.28286E-004	0.00000E+000	-4.61000E-001	-7.95939E-004	10	..........a	-327.74
	992	1.986	-4.92794E-001	-2.32096E-004	0.00000E+000	-4.92000E-001	-7.79272E-004	10	..........a	-327.74
	1023	2.048	-5.23777E-001	-3.87665E-004	0.00000E+000	-5.23000E-001	-7.45939E-004	10	..........a	-327.74
	1054	2.11	-5.54786E-001	-5.89981E-004	0.00000E+000	-5.54000E-001	-7.87605E-004	10	..........a	-327.74
	1085	2.172	-5.85794E-001	-6.76538E-004	0.00000E+000	-5.85000E-001	-7.29272E-004	10	..........a	-327.74
	1116	2.234	-6.16715E-001	-5.68132E-004	0.00000E+000	-6.16000E-001	-7.45939E-004	10	..........a	-327.74
	1147	2.296	-6.47740E-001	-4.65951E-004	0.00000E+000	-6.47000E-001	-7.62605E-004	10	..........a	-327.74
	1178	2.358	-6.78723E-001	-4.04793E-004	0.00000E+000	-6.78000E-001	-7.87605E-004	10	..........a	-327.74
	1209	2.42	-7.09702E-001	-3.59342E-004	0.00000E+000	-7.09000E-001	-7.79272E-004	10	..........a	-327.74
	1240	2.482	-7.40736E-001	-3.24627E-004	0.00000E+000	-7.40000E-001	-7.87605E-004	10	..........a	-327.74
	1271	2.544	-7.71652E-001	-2.98059E-004	0.00000E+000	-7.71000E-001	-7.04272E-004	10	..........a	-327.74
	1302	2.606	-8.02744E-001	-2.76753E-004	0.00000E+000	-8.02000E-001	-6.95939E-004	10	..........a	-327.74
	1333	2.668	-8.33636E-001	-2.59083E-004	0.00000E+000	-8.33000E-001	-8.12605E-004	10	..........a	-327.74
	1364	2.73	-8.64669E-001	-2.44754E-004	0.00000E+000	-8.64000E-001	-6.95939E-004	10	..........a	-327.74
	1395	2.792	-8.95615E-001	-2.32597E-004	0.00000E+000	-8.95000E-001	-8.04272E-004	10	..........a	-327.74
	1426	2.854	-9.26586E-001	-2.22446E-004	0.00000E+000	-9.26000E-001	-7.79272E-004	10	..........a	-327.74
	1457	2.916	-9.57552E-001	-2.14217E-004	0.00000E+000	-9.57000E-001	-7.70939E-004	10	..........a	-327.74
	1488	2.978	-9.88611E-001	-2.06990E-004	0.00000E+000	-9.88000E-001	-7.37606E-004	10	..........a	-327.74
	1519	3.04	-9.81565E-001	-1.82718E-004	0.00000E+000	-9.81000E-001	-7.70939E-004	10	..........a	-327.74
	1550	3.102	-9.50644E-001	-1.70604E-004	0.00000E+000	-9.50000E-001	-7.87605E-004	10	..........a	-327.74
	1581	3.164	-9.19619E-001	-1.62541E-004	0.00000E+000	-9.19000E-001	-7.79272E-004	10	..........a	-327.74
	1612	3.226	-8.88586E-001	-1.56317E-004	0.00000E+000	-8.88000E-001	-7.87605E-004	10	..........a	-327.74
	1643	3.288	-8.57594E-001	-1.50761E-004	0.00000E+000	-8.57000E-001	-7.70939E-004	10	..........a	-327.74
	1674	3.35	-8.26636E-001	-1.45831E-004	0.00000E+000	-8.26000E-001	-7.87605E-004	10	..........a	-327.74
	1705	3.412	-7.95648E-001	-1.41737E-004	0.00000E+000	-7.95000E-001	-7.87605E-004	10	..........a	-327.74
	1736	3.474	-7.64723E-001	-1.37017E-004	0.00000E+000	-7.64000E-001	-7.37606E-004	10	..........a	-327.74
	1767	3.536	-7.33761E-001	-1.31920E-004	0.00000E+000	-7.33000E-001	-7.87605E-004	10	..........a	-327.74
	1798	3.598	-7.02677E-001	-1.26281E-004	0.00000E+000	-7.02000E-001	-7.70939E-004	10	..........a	-327.74
	1829	3.66	-6.71790E-001	-1.19179E-004	0.00000E+000	-6.71000E-001	-7.37606E-004	10	..........a	-327.74
	1860	3.722	-6.40711E-001	-1.09404E-004	0.00000E+000	-6.40000E-001	-7.87605E-004	10	..........a	-327.74
	1891	3.784	-6.09806E-001	-8.56339E-005	0.00000E+000	-6.09000E-001	-7.70939E-004	10	..........a	-327.74
	1922	3.846	-5.78815E-001	-1.06482E-005	0.00000E+000	-5.78000E-001	-7.95939E-004	10	..........a	-327.74
	1953	3.908	-5.47777E-001	1.57453E-004	0.00000E+000	-5.47000E-001	-8.12605E-004	10	..........a	-327.74
	1984	3.97	-5.16802E-001	3.22171E-004	0.00000E+000	-5.16000E-001	-7.62605E-004	10	..........a	-327.74
	2015	4.032	-4.85869E-001	3.95319E-004	0.00000E+000	-4.85000E-001	-7.62605E-004	10	..........a	-327.74
	2046	4.094	-4.54848E-001	3.84290E-004	0.00000E+000	-4.54000E-001	-8.20939E-004	10	..........a	-327.74
	2077	4.156	-4.23869E-001	3.34787E-004	0.00000E+000	-4.23000E-001	-8.37606E-004	10	..........a	-327.74
	2108	4.218	-3.92865E-001	2.87791E-004	0.00000E+000	-3.92000E-001	-8.45939E-004	10	..........a	-327.74
	2139	4.28	-3.61915E-001	2.52449E-004	0.00000E+000	-3.61000E-001	-8.37606E-004	10	..........a	-327.74
	2170	4.342	-3.30890E-001	2.26423E-004	0.00000E+000	-3.30000E-001	-7.95939E-004	10	..........a	-327.74
	2201	4.404	-2.99902E-001	2.06915E-004	0.00000E+000	-2.99000E-001	-7.54272E-004	10	..........a	-327.74
	2232	4.466	-2.68856E-001	1.89620E-004	0.00000E+000	-2.68000E-001	-8.29272E-004	10	..........a	-327.74
	2263	4.528	-2.37927E-001	1.73578E-004	0.00000E+000	-2.37000E-001	-8.12605E-004	10	..........a	-327.74
	2294	4.59	-2.06915E-001	1.59709E-004	0.00000E+000	-2.06000E-001	-8.12605E-004	10	..........a	-327.74
	2325	4.652	-1.75977E-001	1.46341E-004	0.00000E+000	-1.75000E-001	-8.29272E-004	10	..........a	-327.74
	2356	4.714	-1.44948E-001	1.36065E-004	0.00000E+000	-1.44000E-001	-8.04272E-004	10	..........a	-327.74
	2387	4.776	-1.13965E-001	1.27376E-004	0.00000E+000	-1.13000E-001	-7.87605E-004	10	..........a	-327.74
	2418	4.838	-8.30106E-002	1.20650E-004	0.00000E+000	-8.20000E-002	-7.95939E-004	10	..........a	-327.74
	2449	4.9	-5.19773E-002	1.17141E-004	0.00000E+000	-5.10000E-002	-8.04272E-004	10	..........a	-327.74
	2480	4.962	-2.10689E-002	1.15595E-004	0.00000E+000	-2.00000E-002	-7.87605E-004	10	..........a	-327.74
	2511	5.024	1.00019E-002	1.15929E-004	0.00000E+000	1.10000E-002	-8.12605E-004	10	..........a	-327.74
	2542	5.086	4.10311E-002	1.15720E-004	0.00000E+000	4.20000E-002	-7.95939E-004	10	..........a	-327.74
	2573	5.148	7.19644E-002	1.13089E-004	0.00000E+000	7.30000E-002	-7.79272E-004	10	..........a	-327.74
	2604	5.21	1.02906E-001	1.06906E-004	0.00000E+000	1.04000E-001	-8.79272E-004	10	..........a	-327.74
	2635	5.272	1.33956E-001	1.00180E-004	0.00000E+000	1.35000E-001	-8.20939E-004	10	..........a	-327.74
	2666	5.334	1.64910E-001	9.37051E-005	0.00000E+000	1.66000E-001	-7.62605E-004	10	..........a	-327.74
	2697	5.396	1.95902E-001	8.77313E-005	0.00000E+000	1.97000E-001	-7.95939E-004	10	..........a	-327.74
	2728	5.458	2.26898E-001	8.43058E-005	0.00000E+000	2.28000E-001	-7.87605E-004	10	..........a	-327.74
	2759	5.52	2.57848E-001	8.03789E-005	0.00000E+000	2.59000E-001	-8.62605E-004	10	..........a	-327.74
	2790	5.582	2.88869E-001	7.76636E-005	0.00000E+000	2.90000E-001	-8.04272E-004	10	..........a	-327.74
	2821	5.644	3.19806E-001	7.51989E-005	0.00000E+000	3.21000E-001	-8.04272E-004	10	..........a	-327.74
	2852	5.706	3.50889E-001	7.44052E-005	0.00000E+000	3.52000E-001	-7.95939E-004	10	..........a	-327.74
	2883	5.768	3.81906E-001	7.28595E-005	0.00000E+000	3.83000E-001	-7.62605E-004	10	..........a	-327.74
	2914	5.83	4.12835E-001	7.10632E-005	0.00000E+000	4.14000E-001	-7.95939E-004	10	..........a	-327.74
	2945	5.892	4.43794E-001	6.98099E-005	0.00000E+000	4.45000E-001	-7.79272E-004	10	..........a	-327.74
	2976	5.954	4.74827E-001	6.76794E-005	0.00000E+000	4.76000E-001	-7.87605E-004	10	..........a	-327.74
	3000	6.002	4.98835E-001	6.58413E-005	0.00000E+000	5.00000E-001	-7.79272E-004	10	..........a	-327.74
CURVE2	TABLE
	Pt	T	Vf	Im	Vu	Sig	Ach	IERange	Over	Temp
	#	s	V vs. Ref.	A	V	V	V	#	bits	deg C
	3001	6.004	4.98839E-001	6.48805E-005	0.00000E+000	5.00000E-001	-8.29272E-004	10	..........a	-327.74