File: data/02-SI/Figures_S9_S11_RDE/14btmapaq-rde/1mkcl-5mmolar14btmapaq-nitrogen-100mvpers.DTA
EXPLAIN
TAG	CV
TITLE	LABEL	Cyclic Voltammetry	Test &Identifier
DATE	LABEL	1/31/2023	Date
TIME	LABEL	14:01:09	Time
NOTES	NOTES	1	&Notes...

PSTAT	PSTAT	REF3000-21108	Potentiostat
VINIT	POTEN	5.00000E-001	F	Initial &E (V)
VLIMIT1	POTEN	-1.00000E+000	F	Scan Limit &1 (V)
VLIMIT2	POTEN	5.00000E-001	F	Scan Limit &2 (V)
VFINAL	POTEN	5.00000E-001	F	Final &E (V)
SCANRATE	QUANT	9.99998E+001	&Scan Rate (mV/s)
STEPSIZE	QUANT	1.00000E+000	St&ep Size (mV)
CYCLES	IQUANT	1	C&ycles (#)
IMODE	SELECTOR	1	I/E Range &Mode
IRANGE	QUANT	1.00000E+001	&Max Current (mA)
AREA	QUANT	1.00000E+000	Electrode &Area (cm^2)
ELECTRODETYPE	SELECTOR	0	Electrode Type
STRIPPING	TOGGLE	F	Used for Stripping
POLARITY	TOGGLE	F	Signal Polarity
CONDIT	TWOPARAM	F	1.50000E+001	0.00000E+000	Conditionin&g	Time(s)	E(V)
DELAY	TWOPARAM	F	5.00000E+000	0.00000E+000	Init. De&lay	Time(s)	Stab.(mV/s)
EQDELAY	QUANT	0.00000E+000	Equil. &Time (s)
IRCOMP	SELECTOR	0	IRCom&p
PFCOR	QUANT	5.00000E+001	PF Corr. (ohm)
SAMPLINGMODE	SELECTOR	1	Sampling &Mode
EOC	QUANT	0	Open Circuit (V)
PSTATMODEL	IQUANT	5	Pstat Model
PSTATSECTION	LABEL	REF3000-21108	Pstat Section
PSTATSERIALNO	LABEL	21108	Pstat Serial Number
CTRLMODE	IQUANT	1	Control Mode
ELECTROMETER	IQUANT	0	RE=0 or CS=1
IESTAB	IQUANT	2	I/E Stability
CASPEED	IQUANT	4	Control Amp Speed
CONVENTION	IQUANT	1	Current Convention
ICHRANGE	IQUANT	2	Ich Range
ICHRANGEMODE	TOGGLE	F	Ich Auto Range
ICHOFFSETENABLE	TOGGLE	F	Ich Offset Enable
ICHOFFSET	QUANT	0	Ich Offset (V)
ICHFILTER	IQUANT	2	Ich Filter
VCHRANGE	IQUANT	2	Vch Range
VCHRANGEMODE	TOGGLE	F	Vch Auto Range
VCHOFFSETENABLE	TOGGLE	F	Vch Offset Enable
VCHOFFSET	QUANT	0	Vch Offset (V)
VCHFILTER	IQUANT	2	Vch Filter
ACHRANGE	IQUANT	2	Ach Range
ACHOFFSETENABLE	TOGGLE	F	Ach Offset Enable
ACHOFFSET	QUANT	0	Ach Offset (V)
ACHFILTER	IQUANT	0	Ach Filter
IERANGELOWERLIMIT	IQUANT	2	I/E Range Lower Limit
IERANGEMODE	TOGGLE	F	I/E AutoRange
IERANGE	IQUANT	10	I/E Range
POSFEEDENABLE	TOGGLE	F	Positive Feedback IR Comp
POSFEEDRESISTANCE	QUANT	0	Positive Feedback Resistance (ohm)
ACHSELECT	IQUANT	0	Ach Select
SENSECABLEID	IQUANT	14	Sense Cable ID
PWRCABLEID	IQUANT	7	Power Cable ID
DCCALDATE	LABEL	11/9/2022	DC Calibration Date
ACCALDATE	LABEL	11/9/2022	AC Calibration Date
THERMOSELECT	IQUANT	1	Thermo Select
FRAMEWORKVERSION	LABEL	7.8.2	Framework Version
INSTRUMENTVERSION	LABEL	4.40	Instrument Version
COMPLIANCEVOLTAGE	IQUANT	0	Compliance Voltage
CURVE1	TABLE
	Pt	T	Vf	Im	Vu	Sig	Ach	IERange	Over	Temp
	#	s	V vs. Ref.	A	V	V	V	#	bits	deg C
	0	0.01	4.98820E-001	2.13930E-005	0.00000E+000	5.00000E-001	-1.09927E-003	10	..........a	-327.74
	31	0.32	4.67799E-001	2.03457E-006	0.00000E+000	4.69000E-001	-1.10094E-003	10	..........a	-327.74
	62	0.63	4.36834E-001	5.55746E-007	0.00000E+000	4.38000E-001	-1.09261E-003	10	..........a	-327.74
	93	0.94	4.05909E-001	-3.21524E-007	0.00000E+000	4.07000E-001	-1.11761E-003	10	..........a	-327.74
	124	1.25	3.74880E-001	-1.24057E-006	0.00000E+000	3.76000E-001	-1.08427E-003	10	..........a	-327.74
	155	1.56	3.43806E-001	-2.45204E-006	0.00000E+000	3.45000E-001	-1.13761E-003	10	..........a	-327.74
	186	1.87	3.12882E-001	-3.04524E-006	0.00000E+000	3.14000E-001	-1.10427E-003	10	..........a	-327.74
	217	2.18	2.81900E-001	-2.84472E-006	0.00000E+000	2.83000E-001	-1.10094E-003	10	..........a	-327.74
	248	2.49	2.50909E-001	-3.17056E-006	0.00000E+000	2.52000E-001	-1.09761E-003	10	..........a	-327.74
	279	2.8	2.19874E-001	-4.06454E-006	0.00000E+000	2.21000E-001	-1.07761E-003	10	..........a	-327.74
	310	3.11	1.88956E-001	-3.21234E-006	0.00000E+000	1.90000E-001	-1.08927E-003	10	..........a	-327.74
	341	3.42	1.57991E-001	-4.29012E-006	0.00000E+000	1.59000E-001	-1.12594E-003	10	..........a	-327.74
	372	3.73	1.27013E-001	-4.87497E-006	0.00000E+000	1.28000E-001	-1.13094E-003	10	..........a	-327.74
	403	4.04	9.59477E-002	-5.15904E-006	0.00000E+000	9.70000E-002	-1.09761E-003	10	..........a	-327.74
	434	4.35	6.50411E-002	-4.75800E-006	0.00000E+000	6.60000E-002	-1.11594E-003	10	..........a	-327.74
	465	4.66	3.40602E-002	-5.44311E-006	0.00000E+000	3.50000E-002	-1.08261E-003	10	..........a	-327.74
	496	4.97	2.98856E-003	-5.19246E-006	0.00000E+000	4.00001E-003	-1.10427E-003	10	..........a	-327.74
	527	5.28	-2.80923E-002	-5.47653E-006	0.00000E+000	-2.70000E-002	-1.07927E-003	10	..........a	-327.74
	558	5.59	-5.92206E-002	-5.54337E-006	0.00000E+000	-5.80000E-002	-1.13761E-003	10	..........a	-327.74
	589	5.9	-8.99464E-002	-5.55172E-006	0.00000E+000	-8.90000E-002	-1.08594E-003	10	..........a	-327.74
	620	6.21	-1.21038E-001	-5.91099E-006	0.00000E+000	-1.20000E-001	-1.09594E-003	10	..........a	-327.74
	651	6.52	-1.51986E-001	-5.97782E-006	0.00000E+000	-1.51000E-001	-1.06761E-003	10	..........a	-327.74
	682	6.83	-1.82885E-001	-6.62116E-006	0.00000E+000	-1.82000E-001	-1.10927E-003	10	..........a	-327.74
	713	7.14	-2.13916E-001	-7.65717E-006	0.00000E+000	-2.13000E-001	-1.08261E-003	10	..........a	-327.74
	744	7.45	-2.44963E-001	-8.87699E-006	0.00000E+000	-2.44000E-001	-1.09761E-003	10	..........a	-327.74
	775	7.76	-2.75903E-001	-8.87699E-006	0.00000E+000	-2.75000E-001	-1.11261E-003	10	..........a	-327.74
	806	8.07	-3.06934E-001	-8.29215E-006	0.00000E+000	-3.06000E-001	-1.07761E-003	10	..........a	-327.74
	837	8.38	-3.37886E-001	-8.93548E-006	0.00000E+000	-3.37000E-001	-1.12761E-003	10	..........a	-327.74
	868	8.69	-3.68933E-001	-1.13668E-005	0.00000E+000	-3.68000E-001	-1.10927E-003	10	..........a	-327.74
	899	9	-3.99827E-001	-1.39902E-005	0.00000E+000	-3.99000E-001	-1.10261E-003	10	..........a	-327.74
	930	9.31	-4.30844E-001	-2.76506E-005	0.00000E+000	-4.30000E-001	-1.10261E-003	10	..........a	-327.74
	961	9.62	-4.61837E-001	-5.93994E-005	0.00000E+000	-4.61000E-001	-1.10427E-003	10	..........a	-327.74
	992	9.93	-4.92901E-001	-1.12679E-004	0.00000E+000	-4.92000E-001	-1.11094E-003	10	..........a	-327.74
	1023	10.24	-5.24031E-001	-1.98518E-004	0.00000E+000	-5.23000E-001	-1.08094E-003	10	..........a	-327.74
	1054	10.55	-5.54771E-001	-2.92954E-004	0.00000E+000	-5.54000E-001	-1.11927E-003	10	..........a	-327.74
	1085	10.86	-5.85780E-001	-2.96162E-004	0.00000E+000	-5.85000E-001	-1.11594E-003	10	..........a	-327.74
	1116	11.17	-6.16785E-001	-2.38479E-004	0.00000E+000	-6.16000E-001	-1.11261E-003	10	..........a	-327.74
	1147	11.48	-6.47901E-001	-1.98969E-004	0.00000E+000	-6.47000E-001	-1.07927E-003	10	..........a	-327.74
	1178	11.79	-6.78730E-001	-1.75475E-004	0.00000E+000	-6.78000E-001	-1.09427E-003	10	..........a	-327.74
	1209	12.1	-7.09764E-001	-1.58372E-004	0.00000E+000	-7.09000E-001	-1.10761E-003	10	..........a	-327.74
	1240	12.41	-7.40729E-001	-1.44612E-004	0.00000E+000	-7.40000E-001	-1.05927E-003	10	..........a	-327.74
	1271	12.72	-7.71591E-001	-1.34544E-004	0.00000E+000	-7.71000E-001	-1.08094E-003	10	..........a	-327.74
	1302	13.03	-8.02636E-001	-1.26297E-004	0.00000E+000	-8.02000E-001	-1.09261E-003	10	..........a	-327.74
	1333	13.34	-8.33651E-001	-1.18979E-004	0.00000E+000	-8.33000E-001	-1.08594E-003	10	..........a	-327.74
	1364	13.65	-8.64598E-001	-1.12863E-004	0.00000E+000	-8.64000E-001	-1.11927E-003	10	..........a	-327.74
	1395	13.96	-8.95624E-001	-1.09086E-004	0.00000E+000	-8.95000E-001	-1.09927E-003	10	..........a	-327.74
	1426	14.27	-9.26649E-001	-1.03689E-004	0.00000E+000	-9.26000E-001	-1.10427E-003	10	..........a	-327.74
	1457	14.58	-9.57752E-001	-1.01333E-004	0.00000E+000	-9.57000E-001	-1.05427E-003	10	..........a	-327.74
	1488	14.89	-9.88582E-001	-9.67544E-005	0.00000E+000	-9.88000E-001	-1.11261E-003	10	..........a	-327.74
	1519	15.2	-9.81753E-001	-9.13403E-005	0.00000E+000	-9.81000E-001	-1.09927E-003	10	..........a	-327.74
	1550	15.51	-9.50583E-001	-8.63692E-005	0.00000E+000	-9.50000E-001	-1.08927E-003	10	..........a	-327.74
	1581	15.82	-9.19577E-001	-8.39629E-005	0.00000E+000	-9.19000E-001	-1.11094E-003	10	..........a	-327.74
	1612	16.13	-8.88576E-001	-8.01364E-005	0.00000E+000	-8.88000E-001	-1.13927E-003	10	..........a	-327.74
	1643	16.44	-8.57625E-001	-7.82983E-005	0.00000E+000	-8.57000E-001	-1.10761E-003	10	..........a	-327.74
	1674	16.75	-8.26660E-001	-7.79808E-005	0.00000E+000	-8.26000E-001	-1.09927E-003	10	..........a	-327.74
	1705	17.06	-7.95666E-001	-7.54576E-005	0.00000E+000	-7.95000E-001	-1.12927E-003	10	..........a	-327.74
	1736	17.37	-7.64755E-001	-7.23412E-005	0.00000E+000	-7.64000E-001	-1.12594E-003	10	..........a	-327.74
	1767	17.68	-7.33761E-001	-7.07621E-005	0.00000E+000	-7.33000E-001	-1.06761E-003	10	..........a	-327.74
	1798	17.99	-7.02635E-001	-6.97595E-005	0.00000E+000	-7.02000E-001	-1.07761E-003	10	..........a	-327.74
	1829	18.3	-6.71715E-001	-6.55319E-005	0.00000E+000	-6.71000E-001	-1.09094E-003	10	..........a	-327.74
	1860	18.61	-6.40713E-001	-6.23236E-005	0.00000E+000	-6.40000E-001	-1.09094E-003	10	..........a	-327.74
	1891	18.92	-6.09813E-001	-5.40522E-005	0.00000E+000	-6.09000E-001	-1.07427E-003	10	..........a	-327.74
	1922	19.23	-5.78776E-001	-1.80006E-005	0.00000E+000	-5.78000E-001	-1.10927E-003	10	..........a	-327.74
	1953	19.54	-5.47726E-001	8.02870E-005	0.00000E+000	-5.47000E-001	-1.09927E-003	10	..........a	-327.74
	1984	19.85	-5.16871E-001	1.63569E-004	0.00000E+000	-5.16000E-001	-1.11927E-003	10	..........a	-327.74
	2015	20.16	-4.85862E-001	1.85877E-004	0.00000E+000	-4.85000E-001	-1.10261E-003	10	..........a	-327.74
	2046	20.47	-4.54827E-001	1.68490E-004	0.00000E+000	-4.54000E-001	-1.10427E-003	10	..........a	-327.74
	2077	20.78	-4.23847E-001	1.38680E-004	0.00000E+000	-4.23000E-001	-1.09761E-003	10	..........a	-327.74
	2108	21.09	-3.92914E-001	1.14342E-004	0.00000E+000	-3.92000E-001	-1.10594E-003	10	..........a	-327.74
	2139	21.4	-3.61827E-001	9.77990E-005	0.00000E+000	-3.61000E-001	-1.09427E-003	10	..........a	-327.74
	2170	21.71	-3.30896E-001	8.31444E-005	0.00000E+000	-3.30000E-001	-1.09927E-003	10	..........a	-327.74
	2201	22.02	-2.99894E-001	7.44469E-005	0.00000E+000	-2.99000E-001	-1.08427E-003	10	..........a	-327.74
	2232	22.33	-2.68923E-001	6.63844E-005	0.00000E+000	-2.68000E-001	-1.09927E-003	10	..........a	-327.74
	2263	22.64	-2.37926E-001	6.05443E-005	0.00000E+000	-2.37000E-001	-1.12594E-003	10	..........a	-327.74
	2294	22.95	-2.06852E-001	5.67010E-005	0.00000E+000	-2.06000E-001	-1.08094E-003	10	..........a	-327.74
	2325	23.26	-1.75925E-001	5.02593E-005	0.00000E+000	-1.75000E-001	-1.10427E-003	10	..........a	-327.74
	2356	23.57	-1.45017E-001	4.74771E-005	0.00000E+000	-1.44000E-001	-1.10927E-003	10	..........a	-327.74
	2387	23.88	-1.13862E-001	4.24558E-005	0.00000E+000	-1.13000E-001	-1.06594E-003	10	..........a	-327.74
	2418	24.19	-8.30056E-002	4.16537E-005	0.00000E+000	-8.20000E-002	-1.08427E-003	10	..........a	-327.74
	2449	24.5	-5.20189E-002	3.87796E-005	0.00000E+000	-5.10000E-002	-1.10094E-003	10	..........a	-327.74
	2480	24.81	-2.10389E-002	3.45771E-005	0.00000E+000	-2.00000E-002	-1.10427E-003	10	..........a	-327.74
	2511	25.12	1.00386E-002	3.41761E-005	0.00000E+000	1.10000E-002	-1.09427E-003	10	..........a	-327.74
	2542	25.43	4.11511E-002	3.39588E-005	0.00000E+000	4.20000E-002	-1.10261E-003	10	..........a	-327.74
	2573	25.74	7.19811E-002	3.26471E-005	0.00000E+000	7.30000E-002	-1.10927E-003	10	..........a	-327.74
	2604	26.05	1.02944E-001	2.92466E-005	0.00000E+000	1.04000E-001	-1.10761E-003	10	..........a	-327.74
	2635	26.36	1.34018E-001	2.63141E-005	0.00000E+000	1.35000E-001	-1.10927E-003	10	..........a	-327.74
	2666	26.67	1.64958E-001	2.61219E-005	0.00000E+000	1.66000E-001	-1.10427E-003	10	..........a	-327.74
	2697	26.98	1.95780E-001	2.55872E-005	0.00000E+000	1.97000E-001	-1.09761E-003	10	..........a	-327.74
	2728	27.29	2.26921E-001	2.40666E-005	0.00000E+000	2.28000E-001	-1.11094E-003	10	..........a	-327.74
	2759	27.6	2.57880E-001	2.26212E-005	0.00000E+000	2.59000E-001	-1.13261E-003	10	..........a	-327.74
	2790	27.91	2.88888E-001	2.06494E-005	0.00000E+000	2.90000E-001	-1.11594E-003	10	..........a	-327.74
	2821	28.22	3.19849E-001	1.95549E-005	0.00000E+000	3.21000E-001	-1.11261E-003	10	..........a	-327.74
	2852	28.53	3.50875E-001	1.91956E-005	0.00000E+000	3.52000E-001	-1.12261E-003	10	..........a	-327.74
	2883	28.84	3.81921E-001	1.86860E-005	0.00000E+000	3.83000E-001	-1.11094E-003	10	..........a	-327.74
	2914	29.15	4.12834E-001	1.81763E-005	0.00000E+000	4.14000E-001	-1.10927E-003	10	..........a	-327.74
	2945	29.46	4.43795E-001	1.81680E-005	0.00000E+000	4.45000E-001	-1.11094E-003	10	..........a	-327.74
	2976	29.77	4.74909E-001	1.80092E-005	0.00000E+000	4.76000E-001	-1.10261E-003	10	..........a	-327.74
	3000	30.01	4.98832E-001	1.78338E-005	0.00000E+000	5.00000E-001	-1.11594E-003	10	..........a	-327.74
CURVE2	TABLE
	Pt	T	Vf	Im	Vu	Sig	Ach	IERange	Over	Temp
	#	s	V vs. Ref.	A	V	V	V	#	bits	deg C
	3001	30.02	4.98839E-001	1.76583E-005	0.00000E+000	5.00000E-001	-1.12761E-003	10	..........a	-327.74