File: data/02-SI/Figures_S9_S11_RDE/14btmapaq-rde/1mkcl-5mmolar14btmapaq-nitrogen-4000mvpers.DTA
EXPLAIN
TAG	CV
TITLE	LABEL	Cyclic Voltammetry	Test &Identifier
DATE	LABEL	1/31/2023	Date
TIME	LABEL	14:05:13	Time
NOTES	NOTES	1	&Notes...

PSTAT	PSTAT	REF3000-21108	Potentiostat
VINIT	POTEN	5.00000E-001	F	Initial &E (V)
VLIMIT1	POTEN	-1.00000E+000	F	Scan Limit &1 (V)
VLIMIT2	POTEN	5.00000E-001	F	Scan Limit &2 (V)
VFINAL	POTEN	5.00000E-001	F	Final &E (V)
SCANRATE	QUANT	3.99999E+003	&Scan Rate (mV/s)
STEPSIZE	QUANT	1.00000E+000	St&ep Size (mV)
CYCLES	IQUANT	1	C&ycles (#)
IMODE	SELECTOR	1	I/E Range &Mode
IRANGE	QUANT	1.00000E+001	&Max Current (mA)
AREA	QUANT	1.00000E+000	Electrode &Area (cm^2)
ELECTRODETYPE	SELECTOR	0	Electrode Type
STRIPPING	TOGGLE	F	Used for Stripping
POLARITY	TOGGLE	F	Signal Polarity
CONDIT	TWOPARAM	F	1.50000E+001	0.00000E+000	Conditionin&g	Time(s)	E(V)
DELAY	TWOPARAM	F	5.00000E+000	0.00000E+000	Init. De&lay	Time(s)	Stab.(mV/s)
EQDELAY	QUANT	0.00000E+000	Equil. &Time (s)
IRCOMP	SELECTOR	0	IRCom&p
PFCOR	QUANT	5.00000E+001	PF Corr. (ohm)
SAMPLINGMODE	SELECTOR	1	Sampling &Mode
EOC	QUANT	0	Open Circuit (V)
PSTATMODEL	IQUANT	5	Pstat Model
PSTATSECTION	LABEL	REF3000-21108	Pstat Section
PSTATSERIALNO	LABEL	21108	Pstat Serial Number
CTRLMODE	IQUANT	1	Control Mode
ELECTROMETER	IQUANT	0	RE=0 or CS=1
IESTAB	IQUANT	2	I/E Stability
CASPEED	IQUANT	4	Control Amp Speed
CONVENTION	IQUANT	1	Current Convention
ICHRANGE	IQUANT	2	Ich Range
ICHRANGEMODE	TOGGLE	F	Ich Auto Range
ICHOFFSETENABLE	TOGGLE	F	Ich Offset Enable
ICHOFFSET	QUANT	0	Ich Offset (V)
ICHFILTER	IQUANT	1	Ich Filter
VCHRANGE	IQUANT	2	Vch Range
VCHRANGEMODE	TOGGLE	F	Vch Auto Range
VCHOFFSETENABLE	TOGGLE	F	Vch Offset Enable
VCHOFFSET	QUANT	0	Vch Offset (V)
VCHFILTER	IQUANT	1	Vch Filter
ACHRANGE	IQUANT	2	Ach Range
ACHOFFSETENABLE	TOGGLE	F	Ach Offset Enable
ACHOFFSET	QUANT	0	Ach Offset (V)
ACHFILTER	IQUANT	0	Ach Filter
IERANGELOWERLIMIT	IQUANT	2	I/E Range Lower Limit
IERANGEMODE	TOGGLE	F	I/E AutoRange
IERANGE	IQUANT	10	I/E Range
POSFEEDENABLE	TOGGLE	F	Positive Feedback IR Comp
POSFEEDRESISTANCE	QUANT	0	Positive Feedback Resistance (ohm)
ACHSELECT	IQUANT	0	Ach Select
SENSECABLEID	IQUANT	14	Sense Cable ID
PWRCABLEID	IQUANT	7	Power Cable ID
DCCALDATE	LABEL	11/9/2022	DC Calibration Date
ACCALDATE	LABEL	11/9/2022	AC Calibration Date
THERMOSELECT	IQUANT	1	Thermo Select
FRAMEWORKVERSION	LABEL	7.8.2	Framework Version
INSTRUMENTVERSION	LABEL	4.40	Instrument Version
COMPLIANCEVOLTAGE	IQUANT	0	Compliance Voltage
CURVE1	TABLE
	Pt	T	Vf	Im	Vu	Sig	Ach	IERange	Over	Temp
	#	s	V vs. Ref.	A	V	V	V	#	bits	deg C
	0	0.00025	4.98724E-001	6.75565E-005	0.00000E+000	5.00000E-001	-8.29272E-004	10	..........a	-327.74
	32	0.00825	4.66791E-001	-1.95670E-006	0.00000E+000	4.68000E-001	-8.29272E-004	10	..........a	-327.74
	64	0.01625	4.34758E-001	-1.36536E-005	0.00000E+000	4.36000E-001	-7.29272E-004	10	..........a	-327.74
	96	0.02425	4.02724E-001	-2.56848E-005	0.00000E+000	4.04000E-001	-8.79272E-004	10	..........a	-327.74
	128	0.03225	3.70824E-001	-3.40397E-005	0.00000E+000	3.72000E-001	-7.29272E-004	10	..........a	-327.74
	160	0.04025	3.38758E-001	-4.37314E-005	0.00000E+000	3.40000E-001	-7.29272E-004	10	..........a	-327.74
	192	0.04825	3.06724E-001	-4.87444E-005	0.00000E+000	3.08000E-001	-7.79272E-004	10	..........a	-327.74
	224	0.05625	2.74658E-001	-5.97730E-005	0.00000E+000	2.76000E-001	-8.29272E-004	10	..........a	-327.74
	256	0.06425	2.42791E-001	-6.74595E-005	0.00000E+000	2.44000E-001	-8.29272E-004	10	..........a	-327.74
	288	0.07225	2.10824E-001	-7.04673E-005	0.00000E+000	2.12000E-001	-7.29272E-004	10	..........a	-327.74
	320	0.08025	1.78858E-001	-7.51461E-005	0.00000E+000	1.80000E-001	-8.79272E-004	10	..........a	-327.74
	352	0.08825	1.46924E-001	-7.94906E-005	0.00000E+000	1.48000E-001	-7.79272E-004	10	..........a	-327.74
	384	0.09625	1.14991E-001	-7.94906E-005	0.00000E+000	1.16000E-001	-8.79272E-004	10	..........a	-327.74
	416	0.10425	8.27910E-002	-8.65088E-005	0.00000E+000	8.40000E-002	-7.29272E-004	10	..........a	-327.74
	448	0.11225	5.09577E-002	-8.41694E-005	0.00000E+000	5.20000E-002	-7.29272E-004	10	..........a	-327.74
	480	0.12025	1.89243E-002	-8.88482E-005	0.00000E+000	2.00000E-002	-8.29272E-004	10	..........a	-327.74
	512	0.12825	-1.30423E-002	-8.75114E-005	0.00000E+000	-1.20000E-002	-8.79272E-004	10	..........a	-327.74
	544	0.13625	-4.49423E-002	-8.78456E-005	0.00000E+000	-4.40000E-002	-7.79272E-004	10	..........a	-327.74
	576	0.14425	-7.69090E-002	-8.95166E-005	0.00000E+000	-7.60000E-002	-8.29272E-004	10	..........a	-327.74
	608	0.15225	-1.08976E-001	-9.01850E-005	0.00000E+000	-1.08000E-001	-8.29272E-004	10	..........a	-327.74
	640	0.16025	-1.41042E-001	-8.71772E-005	0.00000E+000	-1.40000E-001	-9.29272E-004	10	..........a	-327.74
	672	0.16825	-1.72976E-001	-8.11616E-005	0.00000E+000	-1.72000E-001	-7.79272E-004	10	..........a	-327.74
	704	0.17625	-2.05109E-001	-8.61746E-005	0.00000E+000	-2.04000E-001	-9.79272E-004	10	..........a	-327.74
	736	0.18425	-2.36909E-001	-8.98508E-005	0.00000E+000	-2.36000E-001	-9.29272E-004	10	..........a	-327.74
	768	0.19225	-2.68909E-001	-9.48637E-005	0.00000E+000	-2.68000E-001	-8.29272E-004	10	..........a	-327.74
	800	0.20025	-3.01042E-001	-1.08232E-004	0.00000E+000	-3.00000E-001	-8.29272E-004	10	..........a	-327.74
	832	0.20825	-3.32909E-001	-1.21600E-004	0.00000E+000	-3.32000E-001	-8.29272E-004	10	..........a	-327.74
	864	0.21625	-3.64942E-001	-1.42320E-004	0.00000E+000	-3.64000E-001	-9.29272E-004	10	..........a	-327.74
	896	0.22425	-3.96842E-001	-1.79082E-004	0.00000E+000	-3.96000E-001	-8.79272E-004	10	..........a	-327.74
	928	0.23225	-4.28909E-001	-2.48261E-004	0.00000E+000	-4.28000E-001	-8.79272E-004	10	..........a	-327.74
	960	0.24025	-4.60876E-001	-4.08341E-004	0.00000E+000	-4.60000E-001	-9.29272E-004	10	..........a	-327.74
	992	0.24825	-4.92842E-001	-6.67011E-004	0.00000E+000	-4.92000E-001	-7.79272E-004	10	..........a	-327.74
	1024	0.25625	-5.24809E-001	-1.01792E-003	0.00000E+000	-5.24000E-001	-9.29272E-004	10	..........a	-327.74
	1056	0.26425	-5.56876E-001	-1.54294E-003	0.00000E+000	-5.56000E-001	-7.29272E-004	10	..........a	-327.74
	1088	0.27225	-5.88842E-001	-2.07900E-003	0.00000E+000	-5.88000E-001	-8.29272E-004	10	..........a	-327.74
	1120	0.28025	-6.20742E-001	-2.21769E-003	0.00000E+000	-6.20000E-001	-8.79272E-004	10	..........a	-327.74
	1152	0.28825	-6.52909E-001	-1.93028E-003	0.00000E+000	-6.52000E-001	-8.79272E-004	10	..........a	-327.74
	1184	0.29625	-6.84876E-001	-1.66459E-003	0.00000E+000	-6.84000E-001	-8.79272E-004	10	..........a	-327.74
	1216	0.30425	-7.16776E-001	-1.48379E-003	0.00000E+000	-7.16000E-001	-8.29272E-004	10	..........a	-327.74
	1248	0.31225	-7.48809E-001	-1.33006E-003	0.00000E+000	-7.48000E-001	-7.79272E-004	10	..........a	-327.74
	1280	0.32025	-7.80742E-001	-1.20139E-003	0.00000E+000	-7.80000E-001	-9.79272E-004	10	..........a	-327.74
	1312	0.32825	-8.12742E-001	-1.09712E-003	0.00000E+000	-8.12000E-001	-8.29272E-004	10	..........a	-327.74
	1344	0.33625	-8.44776E-001	-1.01491E-003	0.00000E+000	-8.44000E-001	-8.79272E-004	10	..........a	-327.74
	1376	0.34425	-8.76709E-001	-9.42390E-004	0.00000E+000	-8.76000E-001	-7.79272E-004	10	..........a	-327.74
	1408	0.35225	-9.08776E-001	-8.83571E-004	0.00000E+000	-9.08000E-001	-7.79272E-004	10	..........a	-327.74
	1440	0.36025	-9.40776E-001	-8.35781E-004	0.00000E+000	-9.40000E-001	-7.29272E-004	10	..........a	-327.74
	1472	0.36825	-9.72709E-001	-8.00022E-004	0.00000E+000	-9.72000E-001	-7.79272E-004	10	..........a	-327.74
	1504	0.37625	-9.96609E-001	-6.46959E-004	0.00000E+000	-9.96000E-001	-7.79272E-004	10	..........a	-327.74
	1536	0.38425	-9.64709E-001	-5.09603E-004	0.00000E+000	-9.64000E-001	-7.29272E-004	10	..........a	-327.74
	1568	0.39225	-9.32742E-001	-4.60142E-004	0.00000E+000	-9.32000E-001	-9.29272E-004	10	..........a	-327.74
	1600	0.40025	-9.00642E-001	-4.26722E-004	0.00000E+000	-9.00000E-001	-7.79272E-004	10	..........a	-327.74
	1632	0.40825	-8.68676E-001	-4.02660E-004	0.00000E+000	-8.68000E-001	-8.29272E-004	10	..........a	-327.74
	1664	0.41625	-8.36676E-001	-3.82274E-004	0.00000E+000	-8.36000E-001	-8.79272E-004	10	..........a	-327.74
	1696	0.42425	-8.04742E-001	-3.61888E-004	0.00000E+000	-8.04000E-001	-8.79272E-004	10	..........a	-327.74
	1728	0.43225	-7.72742E-001	-3.44175E-004	0.00000E+000	-7.72000E-001	-8.79272E-004	10	..........a	-327.74
	1760	0.44025	-7.40776E-001	-3.26129E-004	0.00000E+000	-7.40000E-001	-8.79272E-004	10	..........a	-327.74
	1792	0.44825	-7.08776E-001	-3.01732E-004	0.00000E+000	-7.08000E-001	-8.79272E-004	10	..........a	-327.74
	1824	0.45625	-6.76942E-001	-2.69315E-004	0.00000E+000	-6.76000E-001	-8.79272E-004	10	..........a	-327.74
	1856	0.46425	-6.44742E-001	-2.18183E-004	0.00000E+000	-6.44000E-001	-7.79272E-004	10	..........a	-327.74
	1888	0.47225	-6.12809E-001	-1.17923E-004	0.00000E+000	-6.12000E-001	-8.79272E-004	10	..........a	-327.74
	1920	0.48025	-5.80842E-001	8.19270E-005	0.00000E+000	-5.80000E-001	-9.29272E-004	10	..........a	-327.74
	1952	0.48825	-5.48976E-001	4.09775E-004	0.00000E+000	-5.48000E-001	-9.29272E-004	10	..........a	-327.74
	1984	0.49625	-5.16876E-001	7.61351E-004	0.00000E+000	-5.16000E-001	-7.79272E-004	10	..........a	-327.74
	2016	0.50425	-4.84842E-001	1.01768E-003	0.00000E+000	-4.84000E-001	-7.79272E-004	10	..........a	-327.74
	2048	0.51225	-4.52876E-001	1.11226E-003	0.00000E+000	-4.52000E-001	-8.79272E-004	10	..........a	-327.74
	2080	0.52025	-4.20876E-001	1.05344E-003	0.00000E+000	-4.20000E-001	-9.79272E-004	10	..........a	-327.74
	2112	0.52825	-3.88876E-001	9.61202E-004	0.00000E+000	-3.88000E-001	-8.79272E-004	10	..........a	-327.74
	2144	0.53625	-3.56909E-001	8.82331E-004	0.00000E+000	-3.56000E-001	-8.79272E-004	10	..........a	-327.74
	2176	0.54425	-3.25109E-001	8.21841E-004	0.00000E+000	-3.24000E-001	-8.29272E-004	10	..........a	-327.74
	2208	0.55225	-2.92876E-001	7.73383E-004	0.00000E+000	-2.92000E-001	-9.79272E-004	10	..........a	-327.74
	2240	0.56025	-2.60876E-001	7.27263E-004	0.00000E+000	-2.60000E-001	-8.79272E-004	10	..........a	-327.74
	2272	0.56825	-2.28942E-001	6.71452E-004	0.00000E+000	-2.28000E-001	-8.29272E-004	10	..........a	-327.74
	2304	0.57625	-1.97076E-001	6.19317E-004	0.00000E+000	-1.96000E-001	-7.29272E-004	10	..........a	-327.74
	2336	0.58425	-1.65042E-001	5.72864E-004	0.00000E+000	-1.64000E-001	-8.29272E-004	10	..........a	-327.74
	2368	0.59225	-1.33109E-001	5.26745E-004	0.00000E+000	-1.32000E-001	-9.29272E-004	10	..........a	-327.74
	2400	0.60025	-1.01076E-001	4.97335E-004	0.00000E+000	-1.00000E-001	-9.29272E-004	10	..........a	-327.74
	2432	0.60825	-6.90757E-002	4.79623E-004	0.00000E+000	-6.80000E-002	-8.29272E-004	10	..........a	-327.74
	2464	0.61625	-3.70423E-002	4.71268E-004	0.00000E+000	-3.60000E-002	-9.79272E-004	10	..........a	-327.74
	2496	0.62425	-5.10900E-003	4.81294E-004	0.00000E+000	-4.00001E-003	-7.79272E-004	10	..........a	-327.74
	2528	0.63225	2.69910E-002	5.01345E-004	0.00000E+000	2.80000E-002	-8.29272E-004	10	..........a	-327.74
	2560	0.64025	5.89243E-002	5.26076E-004	0.00000E+000	6.00000E-002	-1.02927E-003	10	..........a	-327.74
	2592	0.64825	9.09243E-002	5.48802E-004	0.00000E+000	9.20000E-002	-8.79272E-004	10	..........a	-327.74
	2624	0.65625	1.22791E-001	5.49136E-004	0.00000E+000	1.24000E-001	-8.29272E-004	10	..........a	-327.74
	2656	0.66425	1.54958E-001	5.22066E-004	0.00000E+000	1.56000E-001	-9.29272E-004	10	..........a	-327.74
	2688	0.67225	1.86891E-001	4.80291E-004	0.00000E+000	1.88000E-001	-8.79272E-004	10	..........a	-327.74
	2720	0.68025	2.18791E-001	4.34172E-004	0.00000E+000	2.20000E-001	-8.29272E-004	10	..........a	-327.74
	2752	0.68825	2.50791E-001	3.98747E-004	0.00000E+000	2.52000E-001	-7.79272E-004	10	..........a	-327.74
	2784	0.69625	2.82891E-001	3.71008E-004	0.00000E+000	2.84000E-001	-8.79272E-004	10	..........a	-327.74
	2816	0.70425	3.14791E-001	3.51959E-004	0.00000E+000	3.16000E-001	-8.79272E-004	10	..........a	-327.74
	2848	0.71225	3.46791E-001	3.36252E-004	0.00000E+000	3.48000E-001	-8.29272E-004	10	..........a	-327.74
	2880	0.72025	3.78858E-001	3.24889E-004	0.00000E+000	3.80000E-001	-9.29272E-004	10	..........a	-327.74
	2912	0.72825	4.10858E-001	3.20879E-004	0.00000E+000	4.12000E-001	-9.29272E-004	10	..........a	-327.74
	2944	0.73625	4.42791E-001	3.18873E-004	0.00000E+000	4.44000E-001	-7.79272E-004	10	..........a	-327.74
	2976	0.74425	4.74724E-001	3.15866E-004	0.00000E+000	4.76000E-001	-8.79272E-004	10	..........a	-327.74
	3000	0.75025	4.98758E-001	3.05505E-004	0.00000E+000	5.00000E-001	-8.79272E-004	10	..........a	-327.74
CURVE2	TABLE
	Pt	T	Vf	Im	Vu	Sig	Ach	IERange	Over	Temp
	#	s	V vs. Ref.	A	V	V	V	#	bits	deg C
	3001	0.7505	4.98758E-001	2.73422E-004	0.00000E+000	5.00000E-001	-9.29272E-004	10	..........a	-327.74