File: data/02-SI/Figures_S9_S11_RDE/14btmapaq-rde/1mkcl-5mmolar14btmapaq-nitrogen-6000mvpers.DTA
EXPLAIN
TAG	CV
TITLE	LABEL	Cyclic Voltammetry	Test &Identifier
DATE	LABEL	1/31/2023	Date
TIME	LABEL	14:06:01	Time
NOTES	NOTES	1	&Notes...

PSTAT	PSTAT	REF3000-21108	Potentiostat
VINIT	POTEN	5.00000E-001	F	Initial &E (V)
VLIMIT1	POTEN	-1.00000E+000	F	Scan Limit &1 (V)
VLIMIT2	POTEN	5.00000E-001	F	Scan Limit &2 (V)
VFINAL	POTEN	5.00000E-001	F	Final &E (V)
SCANRATE	QUANT	5.99999E+003	&Scan Rate (mV/s)
STEPSIZE	QUANT	1.00000E+000	St&ep Size (mV)
CYCLES	IQUANT	1	C&ycles (#)
IMODE	SELECTOR	1	I/E Range &Mode
IRANGE	QUANT	1.00000E+001	&Max Current (mA)
AREA	QUANT	1.00000E+000	Electrode &Area (cm^2)
ELECTRODETYPE	SELECTOR	0	Electrode Type
STRIPPING	TOGGLE	F	Used for Stripping
POLARITY	TOGGLE	F	Signal Polarity
CONDIT	TWOPARAM	F	1.50000E+001	0.00000E+000	Conditionin&g	Time(s)	E(V)
DELAY	TWOPARAM	F	5.00000E+000	0.00000E+000	Init. De&lay	Time(s)	Stab.(mV/s)
EQDELAY	QUANT	0.00000E+000	Equil. &Time (s)
IRCOMP	SELECTOR	0	IRCom&p
PFCOR	QUANT	5.00000E+001	PF Corr. (ohm)
SAMPLINGMODE	SELECTOR	1	Sampling &Mode
EOC	QUANT	0	Open Circuit (V)
PSTATMODEL	IQUANT	5	Pstat Model
PSTATSECTION	LABEL	REF3000-21108	Pstat Section
PSTATSERIALNO	LABEL	21108	Pstat Serial Number
CTRLMODE	IQUANT	1	Control Mode
ELECTROMETER	IQUANT	0	RE=0 or CS=1
IESTAB	IQUANT	2	I/E Stability
CASPEED	IQUANT	4	Control Amp Speed
CONVENTION	IQUANT	1	Current Convention
ICHRANGE	IQUANT	2	Ich Range
ICHRANGEMODE	TOGGLE	F	Ich Auto Range
ICHOFFSETENABLE	TOGGLE	F	Ich Offset Enable
ICHOFFSET	QUANT	0	Ich Offset (V)
ICHFILTER	IQUANT	1	Ich Filter
VCHRANGE	IQUANT	2	Vch Range
VCHRANGEMODE	TOGGLE	F	Vch Auto Range
VCHOFFSETENABLE	TOGGLE	F	Vch Offset Enable
VCHOFFSET	QUANT	0	Vch Offset (V)
VCHFILTER	IQUANT	1	Vch Filter
ACHRANGE	IQUANT	2	Ach Range
ACHOFFSETENABLE	TOGGLE	F	Ach Offset Enable
ACHOFFSET	QUANT	0	Ach Offset (V)
ACHFILTER	IQUANT	0	Ach Filter
IERANGELOWERLIMIT	IQUANT	2	I/E Range Lower Limit
IERANGEMODE	TOGGLE	F	I/E AutoRange
IERANGE	IQUANT	10	I/E Range
POSFEEDENABLE	TOGGLE	F	Positive Feedback IR Comp
POSFEEDRESISTANCE	QUANT	0	Positive Feedback Resistance (ohm)
ACHSELECT	IQUANT	0	Ach Select
SENSECABLEID	IQUANT	14	Sense Cable ID
PWRCABLEID	IQUANT	7	Power Cable ID
DCCALDATE	LABEL	11/9/2022	DC Calibration Date
ACCALDATE	LABEL	11/9/2022	AC Calibration Date
THERMOSELECT	IQUANT	1	Thermo Select
FRAMEWORKVERSION	LABEL	7.8.2	Framework Version
INSTRUMENTVERSION	LABEL	4.40	Instrument Version
COMPLIANCEVOLTAGE	IQUANT	0	Compliance Voltage
CURVE1	TABLE
	Pt	T	Vf	Im	Vu	Sig	Ach	IERange	Over	Temp
	#	s	V vs. Ref.	A	V	V	V	#	bits	deg C
	0	0.000167	4.98691E-001	3.66432E-005	0.00000E+000	5.00000E-001	-8.29272E-004	10	..........a	-327.74
	32	0.0055	4.66791E-001	-7.31409E-005	0.00000E+000	4.68000E-001	-7.29272E-004	10	..........a	-327.74
	64	0.010833	4.34891E-001	-8.16629E-005	0.00000E+000	4.36000E-001	-7.29272E-004	10	..........a	-327.74
	96	0.016167	4.02691E-001	-9.16889E-005	0.00000E+000	4.04000E-001	-9.29272E-004	10	..........a	-327.74
	128	0.0215	3.70641E-001	-1.03720E-004	0.00000E+000	3.72000E-001	-6.29272E-004	10	..........a	-327.74
	160	0.026833	3.38691E-001	-1.09234E-004	0.00000E+000	3.40000E-001	-7.29272E-004	10	..........a	-327.74
	192	0.032167	3.06691E-001	-1.19260E-004	0.00000E+000	3.08000E-001	-8.29272E-004	10	..........a	-327.74
	224	0.0375	2.74791E-001	-1.22769E-004	0.00000E+000	2.76000E-001	-7.29272E-004	10	..........a	-327.74
	256	0.042833	2.42791E-001	-1.31291E-004	0.00000E+000	2.44000E-001	-9.29272E-004	10	..........a	-327.74
	288	0.048167	2.10741E-001	-1.37307E-004	0.00000E+000	2.12000E-001	-8.29272E-004	10	..........a	-327.74
	320	0.0535	1.79041E-001	-1.39312E-004	0.00000E+000	1.80000E-001	-8.29272E-004	10	..........a	-327.74
	352	0.058833	1.46841E-001	-1.46832E-004	0.00000E+000	1.48000E-001	-7.29272E-004	10	..........a	-327.74
	384	0.064167	1.14741E-001	-1.51845E-004	0.00000E+000	1.16000E-001	-8.29272E-004	10	..........a	-327.74
	416	0.0695	8.27910E-002	-1.50842E-004	0.00000E+000	8.40000E-002	-7.29272E-004	10	..........a	-327.74
	448	0.074833	5.08410E-002	-1.50842E-004	0.00000E+000	5.20000E-002	-8.29272E-004	10	..........a	-327.74
	480	0.080167	1.88410E-002	-1.53850E-004	0.00000E+000	2.00000E-002	-7.29272E-004	10	..........a	-327.74
	512	0.0855	-1.32590E-002	-1.51845E-004	0.00000E+000	-1.20000E-002	-8.29272E-004	10	..........a	-327.74
	544	0.090833	-4.50590E-002	-1.50341E-004	0.00000E+000	-4.40000E-002	-7.29272E-004	10	..........a	-327.74
	576	0.096167	-7.71590E-002	-1.50341E-004	0.00000E+000	-7.60000E-002	-8.29272E-004	10	..........a	-327.74
	608	0.1015	-1.09209E-001	-1.50842E-004	0.00000E+000	-1.08000E-001	-8.29272E-004	10	..........a	-327.74
	640	0.106833	-1.41059E-001	-1.48837E-004	0.00000E+000	-1.40000E-001	-9.29272E-004	10	..........a	-327.74
	672	0.112167	-1.73059E-001	-1.47333E-004	0.00000E+000	-1.72000E-001	-8.29272E-004	10	..........a	-327.74
	704	0.1175	-2.05059E-001	-1.46832E-004	0.00000E+000	-2.04000E-001	-6.29272E-004	10	..........a	-327.74
	736	0.122833	-2.36909E-001	-1.47333E-004	0.00000E+000	-2.36000E-001	-8.29272E-004	10	..........a	-327.74
	768	0.128167	-2.69009E-001	-1.51845E-004	0.00000E+000	-2.68000E-001	-7.29272E-004	10	..........a	-327.74
	800	0.1335	-3.00959E-001	-1.59364E-004	0.00000E+000	-3.00000E-001	-9.29272E-004	10	..........a	-327.74
	832	0.138833	-3.33009E-001	-1.71395E-004	0.00000E+000	-3.32000E-001	-7.29272E-004	10	..........a	-327.74
	864	0.144167	-3.65059E-001	-1.97964E-004	0.00000E+000	-3.64000E-001	-7.29272E-004	10	..........a	-327.74
	896	0.1495	-3.97059E-001	-2.37065E-004	0.00000E+000	-3.96000E-001	-7.29272E-004	10	..........a	-327.74
	928	0.154833	-4.28859E-001	-3.17272E-004	0.00000E+000	-4.28000E-001	-7.29272E-004	10	..........a	-327.74
	960	0.160167	-4.60959E-001	-5.13280E-004	0.00000E+000	-4.60000E-001	-7.29272E-004	10	..........a	-327.74
	992	0.1655	-4.92809E-001	-8.34611E-004	0.00000E+000	-4.92000E-001	-9.29272E-004	10	..........a	-327.74
	1024	0.170833	-5.24809E-001	-1.26222E-003	0.00000E+000	-5.24000E-001	-6.29272E-004	10	..........a	-327.74
	1056	0.176167	-5.56859E-001	-1.88683E-003	0.00000E+000	-5.56000E-001	-7.29272E-004	10	..........a	-327.74
	1088	0.1815	-5.88859E-001	-2.57712E-003	0.00000E+000	-5.88000E-001	-6.29272E-004	10	..........a	-327.74
	1120	0.186833	-6.20959E-001	-2.93304E-003	0.00000E+000	-6.20000E-001	-8.29272E-004	10	..........a	-327.74
	1152	0.192167	-6.52909E-001	-2.72751E-003	0.00000E+000	-6.52000E-001	-8.29272E-004	10	..........a	-327.74
	1184	0.1975	-6.84759E-001	-2.36758E-003	0.00000E+000	-6.84000E-001	-7.29272E-004	10	..........a	-327.74
	1216	0.202833	-7.16809E-001	-2.11392E-003	0.00000E+000	-7.16000E-001	-7.29272E-004	10	..........a	-327.74
	1248	0.208167	-7.48809E-001	-1.90488E-003	0.00000E+000	-7.48000E-001	-7.29272E-004	10	..........a	-327.74
	1280	0.2135	-7.80759E-001	-1.71539E-003	0.00000E+000	-7.80000E-001	-6.29272E-004	10	..........a	-327.74
	1312	0.218833	-8.12809E-001	-1.56400E-003	0.00000E+000	-8.12000E-001	-9.29272E-004	10	..........a	-327.74
	1344	0.224167	-8.44759E-001	-1.43416E-003	0.00000E+000	-8.44000E-001	-7.29272E-004	10	..........a	-327.74
	1376	0.2295	-8.76759E-001	-1.32388E-003	0.00000E+000	-8.76000E-001	-8.29272E-004	10	..........a	-327.74
	1408	0.234833	-9.08659E-001	-1.23866E-003	0.00000E+000	-9.08000E-001	-6.29272E-004	10	..........a	-327.74
	1440	0.240167	-9.40709E-001	-1.16597E-003	0.00000E+000	-9.40000E-001	-8.29272E-004	10	..........a	-327.74
	1472	0.2455	-9.72759E-001	-1.10932E-003	0.00000E+000	-9.72000E-001	-9.29272E-004	10	..........a	-327.74
	1504	0.250833	-9.96759E-001	-8.60678E-004	0.00000E+000	-9.96000E-001	-9.29272E-004	10	..........a	-327.74
	1536	0.256167	-9.64709E-001	-6.44118E-004	0.00000E+000	-9.64000E-001	-7.29272E-004	10	..........a	-327.74
	1568	0.2615	-9.32759E-001	-5.64913E-004	0.00000E+000	-9.32000E-001	-7.29272E-004	10	..........a	-327.74
	1600	0.266833	-9.00559E-001	-5.19295E-004	0.00000E+000	-9.00000E-001	-9.29272E-004	10	..........a	-327.74
	1632	0.272167	-8.68709E-001	-4.88215E-004	0.00000E+000	-8.68000E-001	-9.29272E-004	10	..........a	-327.74
	1664	0.2775	-8.36709E-001	-4.57636E-004	0.00000E+000	-8.36000E-001	-7.29272E-004	10	..........a	-327.74
	1696	0.282833	-8.04859E-001	-4.31568E-004	0.00000E+000	-8.04000E-001	-9.29272E-004	10	..........a	-327.74
	1728	0.288167	-7.72809E-001	-4.02994E-004	0.00000E+000	-7.72000E-001	-8.29272E-004	10	..........a	-327.74
	1760	0.2935	-7.40909E-001	-3.77428E-004	0.00000E+000	-7.40000E-001	-8.29272E-004	10	..........a	-327.74
	1792	0.298833	-7.08709E-001	-3.41335E-004	0.00000E+000	-7.08000E-001	-7.29272E-004	10	..........a	-327.74
	1824	0.304167	-6.76809E-001	-2.93712E-004	0.00000E+000	-6.76000E-001	-7.29272E-004	10	..........a	-327.74
	1856	0.3095	-6.44809E-001	-2.23530E-004	0.00000E+000	-6.44000E-001	-7.29272E-004	10	..........a	-327.74
	1888	0.314833	-6.12959E-001	-8.91824E-005	0.00000E+000	-6.12000E-001	-8.29272E-004	10	..........a	-327.74
	1920	0.320167	-5.80909E-001	1.67983E-004	0.00000E+000	-5.80000E-001	-8.29272E-004	10	..........a	-327.74
	1952	0.3255	-5.49009E-001	5.48467E-004	0.00000E+000	-5.48000E-001	-8.29272E-004	10	..........a	-327.74
	1984	0.330833	-5.16759E-001	9.59030E-004	0.00000E+000	-5.16000E-001	-8.29272E-004	10	..........a	-327.74
	2016	0.336167	-4.84759E-001	1.28588E-003	0.00000E+000	-4.84000E-001	-8.29272E-004	10	..........a	-327.74
	2048	0.3415	-4.52959E-001	1.42574E-003	0.00000E+000	-4.52000E-001	-9.29272E-004	10	..........a	-327.74
	2080	0.346833	-4.21059E-001	1.37912E-003	0.00000E+000	-4.20000E-001	-6.29272E-004	10	..........a	-327.74
	2112	0.352167	-3.88959E-001	1.26382E-003	0.00000E+000	-3.88000E-001	-9.29272E-004	10	..........a	-327.74
	2144	0.3575	-3.57109E-001	1.17058E-003	0.00000E+000	-3.56000E-001	-8.29272E-004	10	..........a	-327.74
	2176	0.362833	-3.25009E-001	1.10040E-003	0.00000E+000	-3.24000E-001	-8.29272E-004	10	..........a	-327.74
	2208	0.368167	-2.92959E-001	1.04275E-003	0.00000E+000	-2.92000E-001	-8.29272E-004	10	..........a	-327.74
	2240	0.3735	-2.60959E-001	9.83593E-004	0.00000E+000	-2.60000E-001	-9.29272E-004	10	..........a	-327.74
	2272	0.378833	-2.28909E-001	9.21432E-004	0.00000E+000	-2.28000E-001	-9.29272E-004	10	..........a	-327.74
	2304	0.384167	-1.96959E-001	8.45736E-004	0.00000E+000	-1.96000E-001	-6.29272E-004	10	..........a	-327.74
	2336	0.3895	-1.65209E-001	7.86082E-004	0.00000E+000	-1.64000E-001	-8.29272E-004	10	..........a	-327.74
	2368	0.394833	-1.33109E-001	7.26428E-004	0.00000E+000	-1.32000E-001	-7.29272E-004	10	..........a	-327.74
	2400	0.400167	-1.01059E-001	6.79807E-004	0.00000E+000	-1.00000E-001	-8.29272E-004	10	..........a	-327.74
	2432	0.4055	-6.90590E-002	6.51735E-004	0.00000E+000	-6.80000E-002	-8.29272E-004	10	..........a	-327.74
	2464	0.410833	-3.70590E-002	6.37197E-004	0.00000E+000	-3.60000E-002	-8.29272E-004	10	..........a	-327.74
	2496	0.416167	-5.10900E-003	6.39202E-004	0.00000E+000	-4.00001E-003	-8.29272E-004	10	..........a	-327.74
	2528	0.4215	2.68410E-002	6.58251E-004	0.00000E+000	2.80000E-002	-8.29272E-004	10	..........a	-327.74
	2560	0.426833	5.87910E-002	6.88831E-004	0.00000E+000	6.00000E-002	-8.29272E-004	10	..........a	-327.74
	2592	0.432167	9.10410E-002	7.17405E-004	0.00000E+000	9.20000E-002	-8.29272E-004	10	..........a	-327.74
	2624	0.4375	1.22791E-001	7.38960E-004	0.00000E+000	1.24000E-001	-7.29272E-004	10	..........a	-327.74
	2656	0.442833	1.54791E-001	7.18908E-004	0.00000E+000	1.56000E-001	-8.29272E-004	10	..........a	-327.74
	2688	0.448167	1.86891E-001	6.69280E-004	0.00000E+000	1.88000E-001	-8.29272E-004	10	..........a	-327.74
	2720	0.4535	2.18891E-001	6.07620E-004	0.00000E+000	2.20000E-001	-8.29272E-004	10	..........a	-327.74
	2752	0.458833	2.50841E-001	5.55987E-004	0.00000E+000	2.52000E-001	-6.29272E-004	10	..........a	-327.74
	2784	0.464167	2.82891E-001	5.13377E-004	0.00000E+000	2.84000E-001	-8.29272E-004	10	..........a	-327.74
	2816	0.4695	3.14841E-001	4.74777E-004	0.00000E+000	3.16000E-001	-8.29272E-004	10	..........a	-327.74
	2848	0.474833	3.46791E-001	4.58234E-004	0.00000E+000	3.48000E-001	-8.29272E-004	10	..........a	-327.74
	2880	0.480167	3.78691E-001	4.37179E-004	0.00000E+000	3.80000E-001	-8.29272E-004	10	..........a	-327.74
	2912	0.4855	4.10791E-001	4.36177E-004	0.00000E+000	4.12000E-001	-1.02927E-003	10	..........a	-327.74
	2944	0.490833	4.42791E-001	4.32668E-004	0.00000E+000	4.44000E-001	-8.29272E-004	10	..........a	-327.74
	2976	0.496167	4.74891E-001	4.20637E-004	0.00000E+000	4.76000E-001	-8.29272E-004	10	..........a	-327.74
	3000	0.500167	4.98791E-001	4.16125E-004	0.00000E+000	5.00000E-001	-8.29272E-004	10	..........a	-327.74
CURVE2	TABLE
	Pt	T	Vf	Im	Vu	Sig	Ach	IERange	Over	Temp
	#	s	V vs. Ref.	A	V	V	V	#	bits	deg C
	3001	0.500333	4.98791E-001	3.65995E-004	0.00000E+000	5.00000E-001	-9.29272E-004	10	..........a	-327.74