File: data/02-SI/Figures_S9_S11_RDE/14btmapaq-rde/1mkcl-5mmolar14btmapaq-nitrogen-1000mvpers.DTA
EXPLAIN
TAG	CV
TITLE	LABEL	Cyclic Voltammetry	Test &Identifier
DATE	LABEL	1/31/2023	Date
TIME	LABEL	14:04:23	Time
NOTES	NOTES	1	&Notes...

PSTAT	PSTAT	REF3000-21108	Potentiostat
VINIT	POTEN	5.00000E-001	F	Initial &E (V)
VLIMIT1	POTEN	-1.00000E+000	F	Scan Limit &1 (V)
VLIMIT2	POTEN	5.00000E-001	F	Scan Limit &2 (V)
VFINAL	POTEN	5.00000E-001	F	Final &E (V)
SCANRATE	QUANT	9.99998E+002	&Scan Rate (mV/s)
STEPSIZE	QUANT	1.00000E+000	St&ep Size (mV)
CYCLES	IQUANT	1	C&ycles (#)
IMODE	SELECTOR	1	I/E Range &Mode
IRANGE	QUANT	1.00000E+001	&Max Current (mA)
AREA	QUANT	1.00000E+000	Electrode &Area (cm^2)
ELECTRODETYPE	SELECTOR	0	Electrode Type
STRIPPING	TOGGLE	F	Used for Stripping
POLARITY	TOGGLE	F	Signal Polarity
CONDIT	TWOPARAM	F	1.50000E+001	0.00000E+000	Conditionin&g	Time(s)	E(V)
DELAY	TWOPARAM	F	5.00000E+000	0.00000E+000	Init. De&lay	Time(s)	Stab.(mV/s)
EQDELAY	QUANT	0.00000E+000	Equil. &Time (s)
IRCOMP	SELECTOR	0	IRCom&p
PFCOR	QUANT	5.00000E+001	PF Corr. (ohm)
SAMPLINGMODE	SELECTOR	1	Sampling &Mode
EOC	QUANT	0	Open Circuit (V)
PSTATMODEL	IQUANT	5	Pstat Model
PSTATSECTION	LABEL	REF3000-21108	Pstat Section
PSTATSERIALNO	LABEL	21108	Pstat Serial Number
CTRLMODE	IQUANT	1	Control Mode
ELECTROMETER	IQUANT	0	RE=0 or CS=1
IESTAB	IQUANT	2	I/E Stability
CASPEED	IQUANT	4	Control Amp Speed
CONVENTION	IQUANT	1	Current Convention
ICHRANGE	IQUANT	2	Ich Range
ICHRANGEMODE	TOGGLE	F	Ich Auto Range
ICHOFFSETENABLE	TOGGLE	F	Ich Offset Enable
ICHOFFSET	QUANT	0	Ich Offset (V)
ICHFILTER	IQUANT	1	Ich Filter
VCHRANGE	IQUANT	2	Vch Range
VCHRANGEMODE	TOGGLE	F	Vch Auto Range
VCHOFFSETENABLE	TOGGLE	F	Vch Offset Enable
VCHOFFSET	QUANT	0	Vch Offset (V)
VCHFILTER	IQUANT	1	Vch Filter
ACHRANGE	IQUANT	2	Ach Range
ACHOFFSETENABLE	TOGGLE	F	Ach Offset Enable
ACHOFFSET	QUANT	0	Ach Offset (V)
ACHFILTER	IQUANT	0	Ach Filter
IERANGELOWERLIMIT	IQUANT	2	I/E Range Lower Limit
IERANGEMODE	TOGGLE	F	I/E AutoRange
IERANGE	IQUANT	10	I/E Range
POSFEEDENABLE	TOGGLE	F	Positive Feedback IR Comp
POSFEEDRESISTANCE	QUANT	0	Positive Feedback Resistance (ohm)
ACHSELECT	IQUANT	0	Ach Select
SENSECABLEID	IQUANT	14	Sense Cable ID
PWRCABLEID	IQUANT	7	Power Cable ID
DCCALDATE	LABEL	11/9/2022	DC Calibration Date
ACCALDATE	LABEL	11/9/2022	AC Calibration Date
THERMOSELECT	IQUANT	1	Thermo Select
FRAMEWORKVERSION	LABEL	7.8.2	Framework Version
INSTRUMENTVERSION	LABEL	4.40	Instrument Version
COMPLIANCEVOLTAGE	IQUANT	0	Compliance Voltage
CURVE1	TABLE
	Pt	T	Vf	Im	Vu	Sig	Ach	IERange	Over	Temp
	#	s	V vs. Ref.	A	V	V	V	#	bits	deg C
	0	0.001	4.98616E-001	9.12010E-005	0.00000E+000	5.00000E-001	-8.62605E-004	10	..........a	-327.74
	31	0.032	4.67666E-001	5.28518E-005	0.00000E+000	4.69000E-001	-8.45939E-004	10	..........a	-327.74
	62	0.063	4.36666E-001	3.86484E-005	0.00000E+000	4.38000E-001	-8.12605E-004	10	..........a	-327.74
	93	0.094	4.05674E-001	2.77869E-005	0.00000E+000	4.07000E-001	-9.12605E-004	10	..........a	-327.74
	124	0.125	3.74666E-001	2.51133E-005	0.00000E+000	3.76000E-001	-6.79272E-004	10	..........a	-327.74
	155	0.156	3.43724E-001	1.68419E-005	0.00000E+000	3.45000E-001	-9.12605E-004	10	..........a	-327.74
	186	0.187	3.12666E-001	1.22467E-005	0.00000E+000	3.14000E-001	-7.45939E-004	10	..........a	-327.74
	217	0.218	2.81749E-001	8.65409E-006	0.00000E+000	2.83000E-001	-8.62605E-004	10	..........a	-327.74
	248	0.249	2.50808E-001	6.73245E-006	0.00000E+000	2.52000E-001	-7.45939E-004	10	..........a	-327.74
	279	0.28	2.19733E-001	3.80822E-006	0.00000E+000	2.21000E-001	-9.62605E-004	10	..........a	-327.74
	310	0.311	1.88758E-001	3.82690E-007	0.00000E+000	1.90000E-001	-9.95939E-004	10	..........a	-327.74
	341	0.342	1.57841E-001	-4.54673E-006	0.00000E+000	1.59000E-001	-8.29272E-004	10	..........a	-327.74
	372	0.373	1.26699E-001	-5.13158E-006	0.00000E+000	1.28000E-001	-1.04594E-003	10	..........a	-327.74
	403	0.404	9.57577E-002	-8.72421E-006	0.00000E+000	9.70000E-002	-8.12605E-004	10	..........a	-327.74
	434	0.435	6.48160E-002	-9.81035E-006	0.00000E+000	6.60000E-002	-8.79272E-004	10	..........a	-327.74
	465	0.466	3.37493E-002	-1.06458E-005	0.00000E+000	3.50000E-002	-8.79272E-004	10	..........a	-327.74
	496	0.497	2.79934E-003	-1.34865E-005	0.00000E+000	4.00001E-003	-8.95939E-004	10	..........a	-327.74
	527	0.528	-2.82090E-002	-1.62437E-005	0.00000E+000	-2.70000E-002	-8.79272E-004	10	..........a	-327.74
	558	0.559	-5.92173E-002	-1.60766E-005	0.00000E+000	-5.80000E-002	-8.12605E-004	10	..........a	-327.74
	589	0.59	-9.01090E-002	-1.77476E-005	0.00000E+000	-8.90000E-002	-8.45939E-004	10	..........a	-327.74
	620	0.621	-1.21167E-001	-1.84995E-005	0.00000E+000	-1.20000E-001	-9.12605E-004	10	..........a	-327.74
	651	0.652	-1.52142E-001	-1.95856E-005	0.00000E+000	-1.51000E-001	-7.29272E-004	10	..........a	-327.74
	682	0.683	-1.83076E-001	-1.86666E-005	0.00000E+000	-1.82000E-001	-9.79272E-004	10	..........a	-327.74
	713	0.714	-2.14109E-001	-2.25099E-005	0.00000E+000	-2.13000E-001	-7.29272E-004	10	..........a	-327.74
	744	0.745	-2.45009E-001	-2.61025E-005	0.00000E+000	-2.44000E-001	-6.79272E-004	10	..........a	-327.74
	775	0.776	-2.76034E-001	-2.86090E-005	0.00000E+000	-2.75000E-001	-8.29272E-004	10	..........a	-327.74
	806	0.807	-3.07059E-001	-3.21181E-005	0.00000E+000	-3.06000E-001	-8.12605E-004	10	..........a	-327.74
	837	0.838	-3.38042E-001	-3.82172E-005	0.00000E+000	-3.37000E-001	-8.45939E-004	10	..........a	-327.74
	868	0.869	-3.69084E-001	-4.52353E-005	0.00000E+000	-3.68000E-001	-7.45939E-004	10	..........a	-327.74
	899	0.9	-4.00026E-001	-6.17781E-005	0.00000E+000	-3.99000E-001	-9.45939E-004	10	..........a	-327.74
	930	0.931	-4.31009E-001	-1.04555E-004	0.00000E+000	-4.30000E-001	-8.62605E-004	10	..........a	-327.74
	961	0.962	-4.61926E-001	-1.95792E-004	0.00000E+000	-4.61000E-001	-8.29272E-004	10	..........a	-327.74
	992	0.993	-4.93092E-001	-3.34066E-004	0.00000E+000	-4.92000E-001	-9.79272E-004	10	..........a	-327.74
	1023	1.024	-5.24034E-001	-5.33582E-004	0.00000E+000	-5.23000E-001	-8.62605E-004	10	..........a	-327.74
	1054	1.055	-5.54917E-001	-8.13807E-004	0.00000E+000	-5.54000E-001	-8.12605E-004	10	..........a	-327.74
	1085	1.086	-5.85992E-001	-9.91935E-004	0.00000E+000	-5.85000E-001	-8.12605E-004	10	..........a	-327.74
	1116	1.117	-6.16859E-001	-8.91258E-004	0.00000E+000	-6.16000E-001	-8.62605E-004	10	..........a	-327.74
	1147	1.148	-6.47901E-001	-7.31762E-004	0.00000E+000	-6.47000E-001	-7.62605E-004	10	..........a	-327.74
	1178	1.179	-6.78892E-001	-6.34259E-004	0.00000E+000	-6.78000E-001	-8.79272E-004	10	..........a	-327.74
	1209	1.21	-7.09901E-001	-5.63911E-004	0.00000E+000	-7.09000E-001	-8.45939E-004	10	..........a	-327.74
	1240	1.241	-7.40942E-001	-5.07682E-004	0.00000E+000	-7.40000E-001	-7.95939E-004	10	..........a	-327.74
	1271	1.272	-7.71817E-001	-4.65239E-004	0.00000E+000	-7.71000E-001	-9.62605E-004	10	..........a	-327.74
	1302	1.303	-8.02851E-001	-4.29647E-004	0.00000E+000	-8.02000E-001	-7.62605E-004	10	..........a	-327.74
	1333	1.334	-8.33851E-001	-4.02242E-004	0.00000E+000	-8.33000E-001	-7.45939E-004	10	..........a	-327.74
	1364	1.365	-8.64776E-001	-3.77010E-004	0.00000E+000	-8.64000E-001	-8.79272E-004	10	..........a	-327.74
	1395	1.396	-8.95884E-001	-3.58797E-004	0.00000E+000	-8.95000E-001	-9.79272E-004	10	..........a	-327.74
	1426	1.427	-9.26767E-001	-3.42839E-004	0.00000E+000	-9.26000E-001	-9.12605E-004	10	..........a	-327.74
	1457	1.458	-9.57759E-001	-3.29638E-004	0.00000E+000	-9.57000E-001	-8.12605E-004	10	..........a	-327.74
	1488	1.489	-9.88726E-001	-3.18024E-004	0.00000E+000	-9.88000E-001	-7.62605E-004	10	..........a	-327.74
	1519	1.52	-9.81776E-001	-2.71989E-004	0.00000E+000	-9.81000E-001	-7.62605E-004	10	..........a	-327.74
	1550	1.551	-9.50709E-001	-2.52772E-004	0.00000E+000	-9.50000E-001	-7.62605E-004	10	..........a	-327.74
	1581	1.582	-9.19817E-001	-2.39571E-004	0.00000E+000	-9.19000E-001	-9.95939E-004	10	..........a	-327.74
	1612	1.613	-8.88792E-001	-2.30465E-004	0.00000E+000	-8.88000E-001	-8.95939E-004	10	..........a	-327.74
	1643	1.644	-8.57809E-001	-2.20272E-004	0.00000E+000	-8.57000E-001	-8.45939E-004	10	..........a	-327.74
	1674	1.675	-8.26876E-001	-2.13170E-004	0.00000E+000	-8.26000E-001	-8.62605E-004	10	..........a	-327.74
	1705	1.706	-7.95842E-001	-2.06486E-004	0.00000E+000	-7.95000E-001	-8.12605E-004	10	..........a	-327.74
	1736	1.737	-7.64892E-001	-1.99050E-004	0.00000E+000	-7.64000E-001	-9.95939E-004	10	..........a	-327.74
	1767	1.768	-7.33951E-001	-1.90361E-004	0.00000E+000	-7.33000E-001	-9.29272E-004	10	..........a	-327.74
	1798	1.799	-7.02867E-001	-1.81755E-004	0.00000E+000	-7.02000E-001	-7.45939E-004	10	..........a	-327.74
	1829	1.83	-6.71917E-001	-1.72481E-004	0.00000E+000	-6.71000E-001	-7.79272E-004	10	..........a	-327.74
	1860	1.861	-6.40859E-001	-1.52764E-004	0.00000E+000	-6.40000E-001	-8.79272E-004	10	..........a	-327.74
	1891	1.892	-6.09934E-001	-1.14665E-004	0.00000E+000	-6.09000E-001	-8.62605E-004	10	..........a	-327.74
	1922	1.923	-5.78959E-001	-1.04787E-005	0.00000E+000	-5.78000E-001	-8.62605E-004	10	..........a	-327.74
	1953	1.954	-5.47901E-001	1.99648E-004	0.00000E+000	-5.47000E-001	-8.95939E-004	10	..........a	-327.74
	1984	1.985	-5.16967E-001	4.12700E-004	0.00000E+000	-5.16000E-001	-7.95939E-004	10	..........a	-327.74
	2015	2.016	-4.86001E-001	5.27329E-004	0.00000E+000	-4.85000E-001	-9.62605E-004	10	..........a	-327.74
	2046	2.047	-4.55026E-001	5.32760E-004	0.00000E+000	-4.54000E-001	-9.29272E-004	10	..........a	-327.74
	2077	2.078	-4.23984E-001	4.76114E-004	0.00000E+000	-4.23000E-001	-8.95939E-004	10	..........a	-327.74
	2108	2.109	-3.93067E-001	4.15624E-004	0.00000E+000	-3.92000E-001	-1.01261E-003	10	..........a	-327.74
	2139	2.14	-3.62067E-001	3.68502E-004	0.00000E+000	-3.61000E-001	-9.12605E-004	10	..........a	-327.74
	2170	2.171	-3.31101E-001	3.35500E-004	0.00000E+000	-3.30000E-001	-7.95939E-004	10	..........a	-327.74
	2201	2.202	-3.00092E-001	3.06759E-004	0.00000E+000	-2.99000E-001	-9.62605E-004	10	..........a	-327.74
	2232	2.233	-2.69134E-001	2.82613E-004	0.00000E+000	-2.68000E-001	-8.95939E-004	10	..........a	-327.74
	2263	2.264	-2.38092E-001	2.61558E-004	0.00000E+000	-2.37000E-001	-9.62605E-004	10	..........a	-327.74
	2294	2.295	-2.07042E-001	2.38165E-004	0.00000E+000	-2.06000E-001	-8.12605E-004	10	..........a	-327.74
	2325	2.326	-1.76142E-001	2.18530E-004	0.00000E+000	-1.75000E-001	-9.62605E-004	10	..........a	-327.74
	2356	2.357	-1.45151E-001	2.03408E-004	0.00000E+000	-1.44000E-001	-8.95939E-004	10	..........a	-327.74
	2387	2.388	-1.14217E-001	1.90625E-004	0.00000E+000	-1.13000E-001	-9.62605E-004	10	..........a	-327.74
	2418	2.419	-8.31590E-002	1.79680E-004	0.00000E+000	-8.20000E-002	-9.62605E-004	10	..........a	-327.74
	2449	2.45	-5.22007E-002	1.75670E-004	0.00000E+000	-5.10000E-002	-9.29272E-004	10	..........a	-327.74
	2480	2.481	-2.12173E-002	1.74333E-004	0.00000E+000	-2.00000E-002	-8.45939E-004	10	..........a	-327.74
	2511	2.512	9.85767E-003	1.76087E-004	0.00000E+000	1.10000E-002	-9.29272E-004	10	..........a	-327.74
	2542	2.543	4.08160E-002	1.80098E-004	0.00000E+000	4.20000E-002	-1.04594E-003	10	..........a	-327.74
	2573	2.574	7.17660E-002	1.79179E-004	0.00000E+000	7.30000E-002	-8.29272E-004	10	..........a	-327.74
	2604	2.605	1.02808E-001	1.71074E-004	0.00000E+000	1.04000E-001	-8.62605E-004	10	..........a	-327.74
	2635	2.636	1.33774E-001	1.61048E-004	0.00000E+000	1.35000E-001	-9.62605E-004	10	..........a	-327.74
	2666	2.667	1.64799E-001	1.48265E-004	0.00000E+000	1.66000E-001	-7.79272E-004	10	..........a	-327.74
	2697	2.698	1.95733E-001	1.37320E-004	0.00000E+000	1.97000E-001	-1.01261E-003	10	..........a	-327.74
	2728	2.729	2.26741E-001	1.28046E-004	0.00000E+000	2.28000E-001	-8.29272E-004	10	..........a	-327.74
	2759	2.76	2.57666E-001	1.21279E-004	0.00000E+000	2.59000E-001	-8.95939E-004	10	..........a	-327.74
	2790	2.791	2.88683E-001	1.15681E-004	0.00000E+000	2.90000E-001	-9.29272E-004	10	..........a	-327.74
	2821	2.822	3.19791E-001	1.12673E-004	0.00000E+000	3.21000E-001	-7.95939E-004	10	..........a	-327.74
	2852	2.853	3.50733E-001	1.07577E-004	0.00000E+000	3.52000E-001	-7.45939E-004	10	..........a	-327.74
	2883	2.884	3.81708E-001	1.07911E-004	0.00000E+000	3.83000E-001	-6.95939E-004	10	..........a	-327.74
	2914	2.915	4.12591E-001	1.05822E-004	0.00000E+000	4.14000E-001	-9.12605E-004	10	..........a	-327.74
	2945	2.946	4.43741E-001	1.01561E-004	0.00000E+000	4.45000E-001	-7.29272E-004	10	..........a	-327.74
	2976	2.977	4.74749E-001	1.00893E-004	0.00000E+000	4.76000E-001	-7.62605E-004	10	..........a	-327.74
	3000	3.001	4.98708E-001	9.86369E-005	0.00000E+000	5.00000E-001	-8.29272E-004	10	..........a	-327.74
CURVE2	TABLE
	Pt	T	Vf	Im	Vu	Sig	Ach	IERange	Over	Temp
	#	s	V vs. Ref.	A	V	V	V	#	bits	deg C
	3001	3.002	4.98741E-001	9.44594E-005	0.00000E+000	5.00000E-001	-7.79272E-004	10	..........a	-327.74