File: data/02-SI/Figures_S9_S11_RDE/18btmapaq-rde/1mkcl-18btmapaq-nitrogen-50mvpers.DTA
EXPLAIN
TAG	CV
TITLE	LABEL	Cyclic Voltammetry	Test &Identifier
DATE	LABEL	1/31/2023	Date
TIME	LABEL	15:18:21	Time
NOTES	NOTES	1	&Notes...

PSTAT	PSTAT	REF3000-21108	Potentiostat
VINIT	POTEN	5.00000E-001	F	Initial &E (V)
VLIMIT1	POTEN	-1.00000E+000	F	Scan Limit &1 (V)
VLIMIT2	POTEN	5.00000E-001	F	Scan Limit &2 (V)
VFINAL	POTEN	5.00000E-001	F	Final &E (V)
SCANRATE	QUANT	4.99999E+001	&Scan Rate (mV/s)
STEPSIZE	QUANT	1.00000E+000	St&ep Size (mV)
CYCLES	IQUANT	1	C&ycles (#)
IMODE	SELECTOR	1	I/E Range &Mode
IRANGE	QUANT	1.00000E+001	&Max Current (mA)
AREA	QUANT	1.00000E+000	Electrode &Area (cm^2)
ELECTRODETYPE	SELECTOR	0	Electrode Type
STRIPPING	TOGGLE	F	Used for Stripping
POLARITY	TOGGLE	F	Signal Polarity
CONDIT	TWOPARAM	F	1.50000E+001	0.00000E+000	Conditionin&g	Time(s)	E(V)
DELAY	TWOPARAM	F	5.00000E+000	0.00000E+000	Init. De&lay	Time(s)	Stab.(mV/s)
EQDELAY	QUANT	0.00000E+000	Equil. &Time (s)
IRCOMP	SELECTOR	0	IRCom&p
PFCOR	QUANT	5.00000E+001	PF Corr. (ohm)
SAMPLINGMODE	SELECTOR	1	Sampling &Mode
EOC	QUANT	0	Open Circuit (V)
PSTATMODEL	IQUANT	5	Pstat Model
PSTATSECTION	LABEL	REF3000-21108	Pstat Section
PSTATSERIALNO	LABEL	21108	Pstat Serial Number
CTRLMODE	IQUANT	1	Control Mode
ELECTROMETER	IQUANT	0	RE=0 or CS=1
IESTAB	IQUANT	2	I/E Stability
CASPEED	IQUANT	4	Control Amp Speed
CONVENTION	IQUANT	1	Current Convention
ICHRANGE	IQUANT	2	Ich Range
ICHRANGEMODE	TOGGLE	F	Ich Auto Range
ICHOFFSETENABLE	TOGGLE	F	Ich Offset Enable
ICHOFFSET	QUANT	0	Ich Offset (V)
ICHFILTER	IQUANT	2	Ich Filter
VCHRANGE	IQUANT	2	Vch Range
VCHRANGEMODE	TOGGLE	F	Vch Auto Range
VCHOFFSETENABLE	TOGGLE	F	Vch Offset Enable
VCHOFFSET	QUANT	0	Vch Offset (V)
VCHFILTER	IQUANT	2	Vch Filter
ACHRANGE	IQUANT	2	Ach Range
ACHOFFSETENABLE	TOGGLE	F	Ach Offset Enable
ACHOFFSET	QUANT	0	Ach Offset (V)
ACHFILTER	IQUANT	0	Ach Filter
IERANGELOWERLIMIT	IQUANT	2	I/E Range Lower Limit
IERANGEMODE	TOGGLE	F	I/E AutoRange
IERANGE	IQUANT	10	I/E Range
POSFEEDENABLE	TOGGLE	F	Positive Feedback IR Comp
POSFEEDRESISTANCE	QUANT	0	Positive Feedback Resistance (ohm)
ACHSELECT	IQUANT	0	Ach Select
SENSECABLEID	IQUANT	14	Sense Cable ID
PWRCABLEID	IQUANT	7	Power Cable ID
DCCALDATE	LABEL	11/9/2022	DC Calibration Date
ACCALDATE	LABEL	11/9/2022	AC Calibration Date
THERMOSELECT	IQUANT	1	Thermo Select
FRAMEWORKVERSION	LABEL	7.8.2	Framework Version
INSTRUMENTVERSION	LABEL	4.40	Instrument Version
COMPLIANCEVOLTAGE	IQUANT	0	Compliance Voltage
CURVE1	TABLE
	Pt	T	Vf	Im	Vu	Sig	Ach	IERange	Over	Temp
	#	s	V vs. Ref.	A	V	V	V	#	bits	deg C
	0	0.02	4.98820E-001	9.11539E-006	0.00000E+000	5.00000E-001	-7.28439E-004	10	..........a	-327.74
	31	0.64	4.67838E-001	2.59145E-007	0.00000E+000	4.69000E-001	-7.69272E-004	10	..........a	-327.74
	62	1.26	4.36815E-001	-2.46329E-007	0.00000E+000	4.38000E-001	-7.61772E-004	10	..........a	-327.74
	93	1.88	4.05873E-001	-8.47885E-007	0.00000E+000	4.07000E-001	-7.60939E-004	10	..........a	-327.74
	124	2.5	3.74808E-001	-8.10288E-007	0.00000E+000	3.76000E-001	-7.48439E-004	10	..........a	-327.74
	155	3.12	3.43849E-001	-9.27258E-007	0.00000E+000	3.45000E-001	-7.59272E-004	10	..........a	-327.74
	186	3.74	3.12914E-001	-1.09853E-006	0.00000E+000	3.14000E-001	-7.45939E-004	10	..........a	-327.74
	217	4.36	2.81863E-001	-1.49122E-006	0.00000E+000	2.83000E-001	-7.34272E-004	10	..........a	-327.74
	248	4.98	2.50899E-001	-1.42855E-006	0.00000E+000	2.52000E-001	-7.41772E-004	10	..........a	-327.74
	279	5.6	2.19890E-001	-1.40767E-006	0.00000E+000	2.21000E-001	-7.68439E-004	10	..........a	-327.74
	310	6.22	1.88956E-001	-1.63325E-006	0.00000E+000	1.90000E-001	-7.34272E-004	10	..........a	-327.74
	341	6.84	1.57971E-001	-1.49539E-006	0.00000E+000	1.59000E-001	-7.39272E-004	10	..........a	-327.74
	372	7.46	1.26953E-001	-1.74187E-006	0.00000E+000	1.28000E-001	-7.15939E-004	10	..........a	-327.74
	403	8.08	9.59257E-002	-1.92985E-006	0.00000E+000	9.70000E-002	-7.45106E-004	10	..........a	-327.74
	434	8.7	6.50673E-002	-1.57894E-006	0.00000E+000	6.60000E-002	-7.10106E-004	10	..........a	-327.74
	465	9.32	3.39977E-002	-1.72516E-006	0.00000E+000	3.50000E-002	-7.12606E-004	10	..........a	-327.74
	496	9.94	2.95815E-003	-1.92985E-006	0.00000E+000	4.00001E-003	-7.53439E-004	10	..........a	-327.74
	527	10.56	-2.79398E-002	-1.92150E-006	0.00000E+000	-2.70000E-002	-7.57606E-004	10	..........a	-327.74
	558	11.18	-5.89760E-002	-2.04682E-006	0.00000E+000	-5.80000E-002	-7.35106E-004	10	..........a	-327.74
	589	11.8	-8.99377E-002	-2.09695E-006	0.00000E+000	-8.90000E-002	-7.13439E-004	10	..........a	-327.74
	620	12.42	-1.20990E-001	-2.37266E-006	0.00000E+000	-1.20000E-001	-7.36772E-004	10	..........a	-327.74
	651	13.04	-1.51942E-001	-2.32671E-006	0.00000E+000	-1.51000E-001	-7.35939E-004	10	..........a	-327.74
	682	13.66	-1.82881E-001	-3.21234E-006	0.00000E+000	-1.82000E-001	-7.05105E-004	10	..........a	-327.74
	713	14.28	-2.13941E-001	-4.09378E-006	0.00000E+000	-2.13000E-001	-7.01772E-004	10	..........a	-327.74
	744	14.9	-2.44871E-001	-6.10733E-006	0.00000E+000	-2.44000E-001	-6.95106E-004	10	..........a	-327.74
	775	15.52	-2.75858E-001	-9.57881E-006	0.00000E+000	-2.75000E-001	-7.10939E-004	10	..........a	-327.74
	806	16.14	-3.06917E-001	-1.17051E-005	0.00000E+000	-3.06000E-001	-7.63439E-004	10	..........a	-327.74
	837	16.76	-3.37904E-001	-1.29960E-005	0.00000E+000	-3.37000E-001	-7.41772E-004	10	..........a	-327.74
	868	17.38	-3.68801E-001	-1.35098E-005	0.00000E+000	-3.68000E-001	-7.55939E-004	10	..........a	-327.74
	899	18	-3.99859E-001	-1.29793E-005	0.00000E+000	-3.99000E-001	-7.49272E-004	10	..........a	-327.74
	930	18.62	-4.30826E-001	-1.34054E-005	0.00000E+000	-4.30000E-001	-7.11772E-004	10	..........a	-327.74
	961	19.24	-4.61782E-001	-2.32183E-005	0.00000E+000	-4.61000E-001	-7.07606E-004	10	..........a	-327.74
	992	19.86	-4.92788E-001	-6.30004E-005	0.00000E+000	-4.92000E-001	-7.34272E-004	10	..........a	-327.74
	1023	20.48	-5.23694E-001	-1.54132E-004	0.00000E+000	-5.23000E-001	-7.30939E-004	10	..........a	-327.74
	1054	21.1	-5.54791E-001	-2.09312E-004	0.00000E+000	-5.54000E-001	-7.70106E-004	10	..........a	-327.74
	1085	21.72	-5.85818E-001	-1.62545E-004	0.00000E+000	-5.85000E-001	-7.13439E-004	10	..........a	-327.74
	1116	22.34	-6.16706E-001	-1.33048E-004	0.00000E+000	-6.16000E-001	-7.11772E-004	10	..........a	-327.74
	1147	22.96	-6.47786E-001	-1.15770E-004	0.00000E+000	-6.47000E-001	-7.10939E-004	10	..........a	-327.74
	1178	23.58	-6.78728E-001	-1.06801E-004	0.00000E+000	-6.78000E-001	-7.43439E-004	10	..........a	-327.74
	1209	24.2	-7.09762E-001	-1.00560E-004	0.00000E+000	-7.09000E-001	-7.23439E-004	10	..........a	-327.74
	1240	24.82	-7.40722E-001	-9.71721E-005	0.00000E+000	-7.40000E-001	-7.53439E-004	10	..........a	-327.74
	1271	25.44	-7.71641E-001	-9.49246E-005	0.00000E+000	-7.71000E-001	-7.33439E-004	10	..........a	-327.74
	1302	26.06	-8.02671E-001	-9.40181E-005	0.00000E+000	-8.02000E-001	-7.42605E-004	10	..........a	-327.74
	1333	26.68	-8.33629E-001	-9.22886E-005	0.00000E+000	-8.33000E-001	-7.54272E-004	10	..........a	-327.74
	1364	27.3	-8.64580E-001	-9.29361E-005	0.00000E+000	-8.64000E-001	-7.51772E-004	10	..........a	-327.74
	1395	27.92	-8.95639E-001	-9.15868E-005	0.00000E+000	-8.95000E-001	-7.32606E-004	10	..........a	-327.74
	1426	28.54	-9.26621E-001	-8.95816E-005	0.00000E+000	-9.26000E-001	-7.32606E-004	10	..........a	-327.74
	1457	29.16	-9.57559E-001	-9.15325E-005	0.00000E+000	-9.57000E-001	-7.51772E-004	10	..........a	-327.74
	1488	29.78	-9.88577E-001	-9.25602E-005	0.00000E+000	-9.88000E-001	-7.44272E-004	10	..........a	-327.74
	1519	30.4	-9.81555E-001	-8.96485E-005	0.00000E+000	-9.81000E-001	-7.27605E-004	10	..........a	-327.74
	1550	31.02	-9.50559E-001	-8.84746E-005	0.00000E+000	-9.50000E-001	-7.25106E-004	10	..........a	-327.74
	1581	31.64	-9.19609E-001	-8.67994E-005	0.00000E+000	-9.19000E-001	-6.95106E-004	10	..........a	-327.74
	1612	32.26	-8.88606E-001	-8.48736E-005	0.00000E+000	-8.88000E-001	-7.17605E-004	10	..........a	-327.74
	1643	32.88	-8.57615E-001	-8.55671E-005	0.00000E+000	-8.57000E-001	-7.00939E-004	10	..........a	-327.74
	1674	33.5	-8.26625E-001	-8.86793E-005	0.00000E+000	-8.26000E-001	-7.17605E-004	10	..........a	-327.74
	1705	34.12	-7.95666E-001	-8.84621E-005	0.00000E+000	-7.95000E-001	-7.01772E-004	10	..........a	-327.74
	1736	34.74	-7.64714E-001	-8.97529E-005	0.00000E+000	-7.64000E-001	-7.21772E-004	10	..........a	-327.74
	1767	35.36	-7.33731E-001	-9.11607E-005	0.00000E+000	-7.33000E-001	-7.42605E-004	10	..........a	-327.74
	1798	35.98	-7.02743E-001	-9.34792E-005	0.00000E+000	-7.02000E-001	-7.28439E-004	10	..........a	-327.74
	1829	36.6	-6.71765E-001	-9.23722E-005	0.00000E+000	-6.71000E-001	-7.69272E-004	10	..........a	-327.74
	1860	37.22	-6.40674E-001	-9.00620E-005	0.00000E+000	-6.40000E-001	-7.21772E-004	10	..........a	-327.74
	1891	37.84	-6.09833E-001	-8.45603E-005	0.00000E+000	-6.09000E-001	-7.14272E-004	10	..........a	-327.74
	1922	38.46	-5.78778E-001	-7.75589E-005	0.00000E+000	-5.78000E-001	-7.62605E-004	10	..........a	-327.74
	1953	39.08	-5.47741E-001	-4.42727E-005	0.00000E+000	-5.47000E-001	-7.60939E-004	10	..........a	-327.74
	1984	39.7	-5.16816E-001	4.33206E-005	0.00000E+000	-5.16000E-001	-7.39272E-004	10	..........a	-327.74
	2015	40.32	-4.85797E-001	6.42455E-005	0.00000E+000	-4.85000E-001	-7.75105E-004	10	..........a	-327.74
	2046	40.94	-4.54830E-001	4.68631E-005	0.00000E+000	-4.54000E-001	-7.62605E-004	10	..........a	-327.74
	2077	41.56	-4.23849E-001	2.76216E-005	0.00000E+000	-4.23000E-001	-7.07606E-004	10	..........a	-327.74
	2108	42.18	-3.92841E-001	1.51602E-005	0.00000E+000	-3.92000E-001	-7.53439E-004	10	..........a	-327.74
	2139	42.8	-3.61833E-001	7.86633E-006	0.00000E+000	-3.61000E-001	-7.16772E-004	10	..........a	-327.74
	2170	43.42	-3.30896E-001	3.88519E-006	0.00000E+000	-3.30000E-001	-7.65106E-004	10	..........a	-327.74
	2201	44.04	-2.99841E-001	2.11394E-006	0.00000E+000	-2.99000E-001	-7.57606E-004	10	..........a	-327.74
	2232	44.66	-2.68851E-001	7.64620E-007	0.00000E+000	-2.68000E-001	-7.77606E-004	10	..........a	-327.74
	2263	45.28	-2.37898E-001	1.92306E-007	0.00000E+000	-2.37000E-001	-7.54272E-004	10	..........a	-327.74
	2294	45.9	-2.06875E-001	-1.46070E-007	0.00000E+000	-2.06000E-001	-7.45106E-004	10	..........a	-327.74
	2325	46.52	-1.75931E-001	-2.04554E-007	0.00000E+000	-1.75000E-001	-7.70939E-004	10	..........a	-327.74
	2356	47.14	-1.44936E-001	3.35617E-008	0.00000E+000	-1.44000E-001	-7.70939E-004	10	..........a	-327.74
	2387	47.76	-1.13947E-001	2.29903E-007	0.00000E+000	-1.13000E-001	-7.86772E-004	10	..........a	-327.74
	2418	48.38	-8.29627E-002	1.88128E-007	0.00000E+000	-8.20000E-002	-7.70939E-004	10	..........a	-327.74
	2449	49	-5.19127E-002	4.17889E-007	0.00000E+000	-5.10000E-002	-7.50105E-004	10	..........a	-327.74
	2480	49.62	-2.09714E-002	3.59405E-007	0.00000E+000	-2.00000E-002	-7.70939E-004	10	..........a	-327.74
	2511	50.24	1.00023E-002	1.29644E-007	0.00000E+000	1.10000E-002	-7.60939E-004	10	..........a	-327.74
	2542	50.86	4.10806E-002	6.69815E-008	0.00000E+000	4.20000E-002	-7.40106E-004	10	..........a	-327.74
	2573	51.48	7.19902E-002	1.08756E-007	0.00000E+000	7.30000E-002	-7.57606E-004	10	..........a	-327.74
	2604	52.1	1.03002E-001	2.21548E-007	0.00000E+000	1.04000E-001	-7.88439E-004	10	..........a	-327.74
	2635	52.72	1.33964E-001	-1.16827E-007	0.00000E+000	1.35000E-001	-7.91772E-004	10	..........a	-327.74
	2666	53.34	1.64954E-001	-1.12650E-007	0.00000E+000	1.66000E-001	-7.67605E-004	10	..........a	-327.74
	2697	53.96	1.96004E-001	1.29644E-007	0.00000E+000	1.97000E-001	-7.86772E-004	10	..........a	-327.74
	2728	54.58	2.26934E-001	-4.99878E-008	0.00000E+000	2.28000E-001	-7.78439E-004	10	..........a	-327.74
	2759	55.2	2.57871E-001	-8.75851E-008	0.00000E+000	2.59000E-001	-7.76772E-004	10	..........a	-327.74
	2790	55.82	2.88919E-001	-1.25182E-007	0.00000E+000	2.90000E-001	-7.85939E-004	10	..........a	-327.74
	2821	56.44	3.19883E-001	5.86266E-008	0.00000E+000	3.21000E-001	-7.71772E-004	10	..........a	-327.74
	2852	57.06	3.50866E-001	3.05098E-007	0.00000E+000	3.52000E-001	-7.62605E-004	10	..........a	-327.74
	2883	57.68	3.81903E-001	7.39555E-007	0.00000E+000	3.83000E-001	-7.51772E-004	10	..........a	-327.74
	2914	58.3	4.12819E-001	5.76633E-007	0.00000E+000	4.14000E-001	-7.77606E-004	10	..........a	-327.74
	2945	58.92	4.43831E-001	8.48169E-007	0.00000E+000	4.45000E-001	-7.78439E-004	10	..........a	-327.74
	2976	59.54	4.74829E-001	7.01958E-007	0.00000E+000	4.76000E-001	-7.57606E-004	10	..........a	-327.74
	3000	60.02	4.98815E-001	8.60702E-007	0.00000E+000	5.00000E-001	-7.49272E-004	10	..........a	-327.74
CURVE2	TABLE
	Pt	T	Vf	Im	Vu	Sig	Ach	IERange	Over	Temp
	#	s	V vs. Ref.	A	V	V	V	#	bits	deg C
	3001	60.04	4.98816E-001	1.11971E-006	0.00000E+000	5.00000E-001	-7.78439E-004	10	..........a	-327.74