File: data/02-SI/Figures_S9_S11_RDE/18btmapaq-rde/1mkcl-18btmapaq-nitrogen-300mvpers.DTA
EXPLAIN
TAG	CV
TITLE	LABEL	Cyclic Voltammetry	Test &Identifier
DATE	LABEL	1/31/2023	Date
TIME	LABEL	15:20:50	Time
NOTES	NOTES	1	&Notes...

PSTAT	PSTAT	REF3000-21108	Potentiostat
VINIT	POTEN	5.00000E-001	F	Initial &E (V)
VLIMIT1	POTEN	-1.00000E+000	F	Scan Limit &1 (V)
VLIMIT2	POTEN	5.00000E-001	F	Scan Limit &2 (V)
VFINAL	POTEN	5.00000E-001	F	Final &E (V)
SCANRATE	QUANT	2.99999E+002	&Scan Rate (mV/s)
STEPSIZE	QUANT	1.00000E+000	St&ep Size (mV)
CYCLES	IQUANT	1	C&ycles (#)
IMODE	SELECTOR	1	I/E Range &Mode
IRANGE	QUANT	1.00000E+001	&Max Current (mA)
AREA	QUANT	1.00000E+000	Electrode &Area (cm^2)
ELECTRODETYPE	SELECTOR	0	Electrode Type
STRIPPING	TOGGLE	F	Used for Stripping
POLARITY	TOGGLE	F	Signal Polarity
CONDIT	TWOPARAM	F	1.50000E+001	0.00000E+000	Conditionin&g	Time(s)	E(V)
DELAY	TWOPARAM	F	5.00000E+000	0.00000E+000	Init. De&lay	Time(s)	Stab.(mV/s)
EQDELAY	QUANT	0.00000E+000	Equil. &Time (s)
IRCOMP	SELECTOR	0	IRCom&p
PFCOR	QUANT	5.00000E+001	PF Corr. (ohm)
SAMPLINGMODE	SELECTOR	1	Sampling &Mode
EOC	QUANT	0	Open Circuit (V)
PSTATMODEL	IQUANT	5	Pstat Model
PSTATSECTION	LABEL	REF3000-21108	Pstat Section
PSTATSERIALNO	LABEL	21108	Pstat Serial Number
CTRLMODE	IQUANT	1	Control Mode
ELECTROMETER	IQUANT	0	RE=0 or CS=1
IESTAB	IQUANT	2	I/E Stability
CASPEED	IQUANT	4	Control Amp Speed
CONVENTION	IQUANT	1	Current Convention
ICHRANGE	IQUANT	2	Ich Range
ICHRANGEMODE	TOGGLE	F	Ich Auto Range
ICHOFFSETENABLE	TOGGLE	F	Ich Offset Enable
ICHOFFSET	QUANT	0	Ich Offset (V)
ICHFILTER	IQUANT	2	Ich Filter
VCHRANGE	IQUANT	2	Vch Range
VCHRANGEMODE	TOGGLE	F	Vch Auto Range
VCHOFFSETENABLE	TOGGLE	F	Vch Offset Enable
VCHOFFSET	QUANT	0	Vch Offset (V)
VCHFILTER	IQUANT	2	Vch Filter
ACHRANGE	IQUANT	2	Ach Range
ACHOFFSETENABLE	TOGGLE	F	Ach Offset Enable
ACHOFFSET	QUANT	0	Ach Offset (V)
ACHFILTER	IQUANT	0	Ach Filter
IERANGELOWERLIMIT	IQUANT	2	I/E Range Lower Limit
IERANGEMODE	TOGGLE	F	I/E AutoRange
IERANGE	IQUANT	10	I/E Range
POSFEEDENABLE	TOGGLE	F	Positive Feedback IR Comp
POSFEEDRESISTANCE	QUANT	0	Positive Feedback Resistance (ohm)
ACHSELECT	IQUANT	0	Ach Select
SENSECABLEID	IQUANT	14	Sense Cable ID
PWRCABLEID	IQUANT	7	Power Cable ID
DCCALDATE	LABEL	11/9/2022	DC Calibration Date
ACCALDATE	LABEL	11/9/2022	AC Calibration Date
THERMOSELECT	IQUANT	1	Thermo Select
FRAMEWORKVERSION	LABEL	7.8.2	Framework Version
INSTRUMENTVERSION	LABEL	4.40	Instrument Version
COMPLIANCEVOLTAGE	IQUANT	0	Compliance Voltage
CURVE1	TABLE
	Pt	T	Vf	Im	Vu	Sig	Ach	IERange	Over	Temp
	#	s	V vs. Ref.	A	V	V	V	#	bits	deg C
	0	0.003333	4.98791E-001	9.93836E-006	0.00000E+000	5.00000E-001	-7.29272E-004	10	..........a	-327.74
	32	0.11	4.66821E-001	1.34111E-006	0.00000E+000	4.68000E-001	-7.39272E-004	10	..........a	-327.74
	64	0.216667	4.34864E-001	-2.88104E-007	0.00000E+000	4.36000E-001	-7.44272E-004	10	..........a	-327.74
	96	0.323333	4.02824E-001	-1.14031E-006	0.00000E+000	4.04000E-001	-7.39272E-004	10	..........a	-327.74
	128	0.43	3.70864E-001	-2.34342E-006	0.00000E+000	3.72000E-001	-7.54272E-004	10	..........a	-327.74
	160	0.536667	3.38824E-001	-3.42121E-006	0.00000E+000	3.40000E-001	-7.89272E-004	10	..........a	-327.74
	192	0.643333	3.06886E-001	-2.79459E-006	0.00000E+000	3.08000E-001	-7.54272E-004	10	..........a	-327.74
	224	0.75	2.74856E-001	-3.29589E-006	0.00000E+000	2.76000E-001	-7.39272E-004	10	..........a	-327.74
	256	0.856667	2.42899E-001	-3.17056E-006	0.00000E+000	2.44000E-001	-6.99272E-004	10	..........a	-327.74
	288	0.96333	2.10881E-001	-3.32095E-006	0.00000E+000	2.12000E-001	-7.44272E-004	10	..........a	-327.74
	320	1.07	1.78901E-001	-3.17056E-006	0.00000E+000	1.80000E-001	-7.34272E-004	10	..........a	-327.74
	352	1.17667	1.46911E-001	-3.12043E-006	0.00000E+000	1.48000E-001	-7.24272E-004	10	..........a	-327.74
	384	1.28333	1.14924E-001	-3.69692E-006	0.00000E+000	1.16000E-001	-7.24272E-004	10	..........a	-327.74
	416	1.39	8.29061E-002	-3.27082E-006	0.00000E+000	8.40000E-002	-7.14272E-004	10	..........a	-327.74
	448	1.49667	5.09486E-002	-3.62173E-006	0.00000E+000	5.20000E-002	-7.29272E-004	10	..........a	-327.74
	480	1.60333	1.88961E-002	-3.54653E-006	0.00000E+000	2.00000E-002	-7.04272E-004	10	..........a	-327.74
	512	1.71	-1.30514E-002	-3.67186E-006	0.00000E+000	-1.20000E-002	-7.14272E-004	10	..........a	-327.74
	544	1.81667	-4.50614E-002	-3.79718E-006	0.00000E+000	-4.40000E-002	-7.59272E-004	10	..........a	-327.74
	576	1.92333	-7.70464E-002	-3.84731E-006	0.00000E+000	-7.60000E-002	-7.14272E-004	10	..........a	-327.74
	608	2.03	-1.09054E-001	-3.94757E-006	0.00000E+000	-1.08000E-001	-7.39272E-004	10	..........a	-327.74
	640	2.13667	-1.40979E-001	-4.09796E-006	0.00000E+000	-1.40000E-001	-7.29272E-004	10	..........a	-327.74
	672	2.24333	-1.72986E-001	-4.27342E-006	0.00000E+000	-1.72000E-001	-7.14272E-004	10	..........a	-327.74
	704	2.35	-2.04956E-001	-4.84991E-006	0.00000E+000	-2.04000E-001	-7.04272E-004	10	..........a	-327.74
	736	2.45667	-2.36866E-001	-6.57938E-006	0.00000E+000	-2.36000E-001	-7.09272E-004	10	..........a	-327.74
	768	2.56333	-2.68911E-001	-9.18612E-006	0.00000E+000	-2.68000E-001	-7.44272E-004	10	..........a	-327.74
	800	2.67	-3.00911E-001	-1.21438E-005	0.00000E+000	-3.00000E-001	-7.39272E-004	10	..........a	-327.74
	832	2.77667	-3.32866E-001	-1.59536E-005	0.00000E+000	-3.32000E-001	-7.69272E-004	10	..........a	-327.74
	864	2.88333	-3.64936E-001	-1.96131E-005	0.00000E+000	-3.64000E-001	-7.24272E-004	10	..........a	-327.74
	896	2.99	-3.96831E-001	-2.20193E-005	0.00000E+000	-3.96000E-001	-7.49272E-004	10	..........a	-327.74
	928	3.09667	-4.28891E-001	-2.65059E-005	0.00000E+000	-4.28000E-001	-7.19272E-004	10	..........a	-327.74
	960	3.20333	-4.60831E-001	-5.31499E-005	0.00000E+000	-4.60000E-001	-7.44272E-004	10	..........a	-327.74
	992	3.31	-4.92874E-001	-1.41930E-004	0.00000E+000	-4.92000E-001	-6.99272E-004	10	..........a	-327.74
	1024	3.41667	-5.24804E-001	-3.35957E-004	0.00000E+000	-5.24000E-001	-7.39272E-004	10	..........a	-327.74
	1056	3.52333	-5.56811E-001	-4.87499E-004	0.00000E+000	-5.56000E-001	-7.29272E-004	10	..........a	-327.74
	1088	3.63	-5.88804E-001	-4.04684E-004	0.00000E+000	-5.88000E-001	-7.19272E-004	10	..........a	-327.74
	1120	3.73667	-6.20786E-001	-3.15629E-004	0.00000E+000	-6.20000E-001	-7.29272E-004	10	..........a	-327.74
	1152	3.84333	-6.52739E-001	-2.67555E-004	0.00000E+000	-6.52000E-001	-7.69272E-004	10	..........a	-327.74
	1184	3.95	-6.84766E-001	-2.37727E-004	0.00000E+000	-6.84000E-001	-7.89272E-004	10	..........a	-327.74
	1216	4.05667	-7.16731E-001	-2.16648E-004	0.00000E+000	-7.16000E-001	-7.24272E-004	10	..........a	-327.74
	1248	4.16333	-7.48734E-001	-1.99679E-004	0.00000E+000	-7.48000E-001	-7.24272E-004	10	..........a	-327.74
	1280	4.27	-7.80709E-001	-1.87172E-004	0.00000E+000	-7.80000E-001	-7.34272E-004	10	..........a	-327.74
	1312	4.37667	-8.12706E-001	-1.76845E-004	0.00000E+000	-8.12000E-001	-7.44272E-004	10	..........a	-327.74
	1344	4.48333	-8.44656E-001	-1.68874E-004	0.00000E+000	-8.44000E-001	-7.34272E-004	10	..........a	-327.74
	1376	4.59	-8.76601E-001	-1.61756E-004	0.00000E+000	-8.76000E-001	-7.29272E-004	10	..........a	-327.74
	1408	4.69667	-9.08629E-001	-1.56392E-004	0.00000E+000	-9.08000E-001	-7.64272E-004	10	..........a	-327.74
	1440	4.80333	-9.40611E-001	-1.52457E-004	0.00000E+000	-9.40000E-001	-7.24272E-004	10	..........a	-327.74
	1472	4.91	-9.72569E-001	-1.47268E-004	0.00000E+000	-9.72000E-001	-7.24272E-004	10	..........a	-327.74
	1504	5.01667	-9.96626E-001	-1.40651E-004	0.00000E+000	-9.96000E-001	-7.19272E-004	10	..........a	-327.74
	1536	5.12333	-9.64601E-001	-1.30400E-004	0.00000E+000	-9.64000E-001	-7.19272E-004	10	..........a	-327.74
	1568	5.23	-9.32599E-001	-1.24835E-004	0.00000E+000	-9.32000E-001	-7.54272E-004	10	..........a	-327.74
	1600	5.33667	-9.00651E-001	-1.20524E-004	0.00000E+000	-9.00000E-001	-7.24272E-004	10	..........a	-327.74
	1632	5.44333	-8.68654E-001	-1.16739E-004	0.00000E+000	-8.68000E-001	-7.34272E-004	10	..........a	-327.74
	1664	5.55	-8.36631E-001	-1.13005E-004	0.00000E+000	-8.36000E-001	-7.64272E-004	10	..........a	-327.74
	1696	5.65667	-8.04716E-001	-1.10273E-004	0.00000E+000	-8.04000E-001	-6.89272E-004	10	..........a	-327.74
	1728	5.76333	-7.72729E-001	-1.07866E-004	0.00000E+000	-7.72000E-001	-7.09272E-004	10	..........a	-327.74
	1760	5.87	-7.40761E-001	-1.05410E-004	0.00000E+000	-7.40000E-001	-7.09272E-004	10	..........a	-327.74
	1792	5.97667	-7.08741E-001	-1.02427E-004	0.00000E+000	-7.08000E-001	-7.14272E-004	10	..........a	-327.74
	1824	6.08333	-6.76796E-001	-9.92441E-005	0.00000E+000	-6.76000E-001	-7.44272E-004	10	..........a	-327.74
	1856	6.19	-6.44759E-001	-9.56348E-005	0.00000E+000	-6.44000E-001	-7.09272E-004	10	..........a	-327.74
	1888	6.29667	-6.12829E-001	-8.73634E-005	0.00000E+000	-6.12000E-001	-7.39272E-004	10	..........a	-327.74
	1920	6.40333	-5.80811E-001	-6.45043E-005	0.00000E+000	-5.80000E-001	-7.39272E-004	10	..........a	-327.74
	1952	6.51	-5.48851E-001	2.49021E-005	0.00000E+000	-5.48000E-001	-7.34272E-004	10	..........a	-327.74
	1984	6.61667	-5.16836E-001	2.42565E-004	0.00000E+000	-5.16000E-001	-6.99272E-004	10	..........a	-327.74
	2016	6.72333	-4.84866E-001	3.01292E-004	0.00000E+000	-4.84000E-001	-7.44272E-004	10	..........a	-327.74
	2048	6.83	-4.52881E-001	2.35948E-004	0.00000E+000	-4.52000E-001	-7.14272E-004	10	..........a	-327.74
	2080	6.93667	-4.20936E-001	1.75592E-004	0.00000E+000	-4.20000E-001	-7.29272E-004	10	..........a	-327.74
	2112	7.04333	-3.88851E-001	1.36942E-004	0.00000E+000	-3.88000E-001	-7.34272E-004	10	..........a	-327.74
	2144	7.15	-3.56916E-001	1.11476E-004	0.00000E+000	-3.56000E-001	-7.29272E-004	10	..........a	-327.74
	2176	7.25667	-3.24926E-001	9.37051E-005	0.00000E+000	-3.24000E-001	-7.54272E-004	10	..........a	-327.74
	2208	7.36333	-2.92901E-001	8.07466E-005	0.00000E+000	-2.92000E-001	-7.14272E-004	10	..........a	-327.74
	2240	7.47	-2.60939E-001	7.07707E-005	0.00000E+000	-2.60000E-001	-7.44272E-004	10	..........a	-327.74
	2272	7.57667	-2.28929E-001	6.34267E-005	0.00000E+000	-2.28000E-001	-7.49272E-004	10	..........a	-327.74
	2304	7.68333	-1.96909E-001	5.75114E-005	0.00000E+000	-1.96000E-001	-7.19272E-004	10	..........a	-327.74
	2336	7.79	-1.65061E-001	5.27992E-005	0.00000E+000	-1.64000E-001	-6.99272E-004	10	..........a	-327.74
	2368	7.89667	-1.32909E-001	4.85633E-005	0.00000E+000	-1.32000E-001	-7.29272E-004	10	..........a	-327.74
	2400	8.00333	-1.01014E-001	4.61571E-005	0.00000E+000	-1.00000E-001	-7.84272E-004	10	..........a	-327.74
	2432	8.11	-6.90164E-002	4.46532E-005	0.00000E+000	-6.80000E-002	-7.24272E-004	10	..........a	-327.74
	2464	8.21667	-3.71014E-002	4.38260E-005	0.00000E+000	-3.60000E-002	-7.24272E-004	10	..........a	-327.74
	2496	8.32333	-5.07894E-003	4.41268E-005	0.00000E+000	-4.00001E-003	-7.49272E-004	10	..........a	-327.74
	2528	8.43	2.69361E-002	4.45278E-005	0.00000E+000	2.80000E-002	-7.09272E-004	10	..........a	-327.74
	2560	8.53667	5.89236E-002	4.34501E-005	0.00000E+000	6.00000E-002	-7.94272E-004	10	..........a	-327.74
	2592	8.64333	9.10086E-002	3.99660E-005	0.00000E+000	9.20000E-002	-7.09272E-004	10	..........a	-327.74
	2624	8.75	1.22924E-001	3.66575E-005	0.00000E+000	1.24000E-001	-7.69272E-004	10	..........a	-327.74
	2656	8.85667	1.54971E-001	3.30732E-005	0.00000E+000	1.56000E-001	-7.34272E-004	10	..........a	-327.74
	2688	8.96333	1.86926E-001	3.07672E-005	0.00000E+000	1.88000E-001	-7.19272E-004	10	..........a	-327.74
	2720	9.07	2.18854E-001	2.81856E-005	0.00000E+000	2.20000E-001	-7.79272E-004	10	..........a	-327.74
	2752	9.17667	2.50859E-001	2.68321E-005	0.00000E+000	2.52000E-001	-7.34272E-004	10	..........a	-327.74
	2784	9.28333	2.82904E-001	2.48770E-005	0.00000E+000	2.84000E-001	-7.59272E-004	10	..........a	-327.74
	2816	9.39	3.14866E-001	2.39747E-005	0.00000E+000	3.16000E-001	-6.89272E-004	10	..........a	-327.74
	2848	9.49667	3.46836E-001	2.27966E-005	0.00000E+000	3.48000E-001	-7.74272E-004	10	..........a	-327.74
	2880	9.6033	3.78801E-001	2.27716E-005	0.00000E+000	3.80000E-001	-7.49272E-004	10	..........a	-327.74
	2912	9.71	4.10779E-001	2.14431E-005	0.00000E+000	4.12000E-001	-7.09272E-004	10	..........a	-327.74
	2944	9.8167	4.42784E-001	2.05909E-005	0.00000E+000	4.44000E-001	-7.99272E-004	10	..........a	-327.74
	2976	9.9233	4.74744E-001	1.98390E-005	0.00000E+000	4.76000E-001	-7.24272E-004	10	..........a	-327.74
	3000	10.0033	4.98799E-001	1.91121E-005	0.00000E+000	5.00000E-001	-7.49272E-004	10	..........a	-327.74
CURVE2	TABLE
	Pt	T	Vf	Im	Vu	Sig	Ach	IERange	Over	Temp
	#	s	V vs. Ref.	A	V	V	V	#	bits	deg C
	3001	10.0067	4.98794E-001	1.84855E-005	0.00000E+000	5.00000E-001	-7.14272E-004	10	..........a	-327.74