File: data/02-SI/Figures_S9_S11_RDE/18btmapaq-rde/1mkcl-18btmapaq-nitrogen-1000mvpers.DTA
EXPLAIN
TAG	CV
TITLE	LABEL	Cyclic Voltammetry	Test &Identifier
DATE	LABEL	1/31/2023	Date
TIME	LABEL	15:22:34	Time
NOTES	NOTES	1	&Notes...

PSTAT	PSTAT	REF3000-21108	Potentiostat
VINIT	POTEN	5.00000E-001	F	Initial &E (V)
VLIMIT1	POTEN	-1.00000E+000	F	Scan Limit &1 (V)
VLIMIT2	POTEN	5.00000E-001	F	Scan Limit &2 (V)
VFINAL	POTEN	5.00000E-001	F	Final &E (V)
SCANRATE	QUANT	9.99998E+002	&Scan Rate (mV/s)
STEPSIZE	QUANT	1.00000E+000	St&ep Size (mV)
CYCLES	IQUANT	1	C&ycles (#)
IMODE	SELECTOR	1	I/E Range &Mode
IRANGE	QUANT	1.00000E+001	&Max Current (mA)
AREA	QUANT	1.00000E+000	Electrode &Area (cm^2)
ELECTRODETYPE	SELECTOR	0	Electrode Type
STRIPPING	TOGGLE	F	Used for Stripping
POLARITY	TOGGLE	F	Signal Polarity
CONDIT	TWOPARAM	F	1.50000E+001	0.00000E+000	Conditionin&g	Time(s)	E(V)
DELAY	TWOPARAM	F	5.00000E+000	0.00000E+000	Init. De&lay	Time(s)	Stab.(mV/s)
EQDELAY	QUANT	0.00000E+000	Equil. &Time (s)
IRCOMP	SELECTOR	0	IRCom&p
PFCOR	QUANT	5.00000E+001	PF Corr. (ohm)
SAMPLINGMODE	SELECTOR	1	Sampling &Mode
EOC	QUANT	0	Open Circuit (V)
PSTATMODEL	IQUANT	5	Pstat Model
PSTATSECTION	LABEL	REF3000-21108	Pstat Section
PSTATSERIALNO	LABEL	21108	Pstat Serial Number
CTRLMODE	IQUANT	1	Control Mode
ELECTROMETER	IQUANT	0	RE=0 or CS=1
IESTAB	IQUANT	2	I/E Stability
CASPEED	IQUANT	4	Control Amp Speed
CONVENTION	IQUANT	1	Current Convention
ICHRANGE	IQUANT	2	Ich Range
ICHRANGEMODE	TOGGLE	F	Ich Auto Range
ICHOFFSETENABLE	TOGGLE	F	Ich Offset Enable
ICHOFFSET	QUANT	0	Ich Offset (V)
ICHFILTER	IQUANT	1	Ich Filter
VCHRANGE	IQUANT	2	Vch Range
VCHRANGEMODE	TOGGLE	F	Vch Auto Range
VCHOFFSETENABLE	TOGGLE	F	Vch Offset Enable
VCHOFFSET	QUANT	0	Vch Offset (V)
VCHFILTER	IQUANT	1	Vch Filter
ACHRANGE	IQUANT	2	Ach Range
ACHOFFSETENABLE	TOGGLE	F	Ach Offset Enable
ACHOFFSET	QUANT	0	Ach Offset (V)
ACHFILTER	IQUANT	0	Ach Filter
IERANGELOWERLIMIT	IQUANT	2	I/E Range Lower Limit
IERANGEMODE	TOGGLE	F	I/E AutoRange
IERANGE	IQUANT	10	I/E Range
POSFEEDENABLE	TOGGLE	F	Positive Feedback IR Comp
POSFEEDRESISTANCE	QUANT	0	Positive Feedback Resistance (ohm)
ACHSELECT	IQUANT	0	Ach Select
SENSECABLEID	IQUANT	14	Sense Cable ID
PWRCABLEID	IQUANT	7	Power Cable ID
DCCALDATE	LABEL	11/9/2022	DC Calibration Date
ACCALDATE	LABEL	11/9/2022	AC Calibration Date
THERMOSELECT	IQUANT	1	Thermo Select
FRAMEWORKVERSION	LABEL	7.8.2	Framework Version
INSTRUMENTVERSION	LABEL	4.40	Instrument Version
COMPLIANCEVOLTAGE	IQUANT	0	Compliance Voltage
CURVE1	TABLE
	Pt	T	Vf	Im	Vu	Sig	Ach	IERange	Over	Temp
	#	s	V vs. Ref.	A	V	V	V	#	bits	deg C
	0	0.001	4.98608E-001	1.08264E-005	0.00000E+000	5.00000E-001	-8.62605E-004	10	..........a	-327.74
	31	0.032	4.67549E-001	-6.71902E-006	0.00000E+000	4.69000E-001	-8.95939E-004	10	..........a	-327.74
	62	0.063	4.36574E-001	-1.13978E-005	0.00000E+000	4.38000E-001	-8.79272E-004	10	..........a	-327.74
	93	0.094	4.05624E-001	-1.39043E-005	0.00000E+000	4.07000E-001	-8.29272E-004	10	..........a	-327.74
	124	0.125	3.74624E-001	-1.64943E-005	0.00000E+000	3.76000E-001	-8.62605E-004	10	..........a	-327.74
	155	0.156	3.43616E-001	-1.86666E-005	0.00000E+000	3.45000E-001	-8.62605E-004	10	..........a	-327.74
	186	0.187	3.12608E-001	-1.79146E-005	0.00000E+000	3.14000E-001	-8.29272E-004	10	..........a	-327.74
	217	0.218	2.81599E-001	-1.92514E-005	0.00000E+000	2.83000E-001	-7.62605E-004	10	..........a	-327.74
	248	0.249	2.50683E-001	-1.96692E-005	0.00000E+000	2.52000E-001	-8.62605E-004	10	..........a	-327.74
	279	0.28	2.19666E-001	-1.86666E-005	0.00000E+000	2.21000E-001	-7.62605E-004	10	..........a	-327.74
	310	0.311	1.88691E-001	-2.10895E-005	0.00000E+000	1.90000E-001	-7.45939E-004	10	..........a	-327.74
	341	0.342	1.57758E-001	-2.03376E-005	0.00000E+000	1.59000E-001	-7.95939E-004	10	..........a	-327.74
	372	0.373	1.26758E-001	-1.93350E-005	0.00000E+000	1.28000E-001	-7.95939E-004	10	..........a	-327.74
	403	0.404	9.57577E-002	-2.07553E-005	0.00000E+000	9.70000E-002	-7.79272E-004	10	..........a	-327.74
	434	0.435	6.47493E-002	-2.09224E-005	0.00000E+000	6.60000E-002	-8.29272E-004	10	..........a	-327.74
	465	0.466	3.37660E-002	-1.90008E-005	0.00000E+000	3.50000E-002	-8.12605E-004	10	..........a	-327.74
	496	0.497	2.73267E-003	-2.05047E-005	0.00000E+000	4.00001E-003	-7.95939E-004	10	..........a	-327.74
	527	0.528	-2.82507E-002	-2.05047E-005	0.00000E+000	-2.70000E-002	-8.45939E-004	10	..........a	-327.74
	558	0.559	-5.93257E-002	-2.25934E-005	0.00000E+000	-5.80000E-002	-8.29272E-004	10	..........a	-327.74
	589	0.59	-9.02423E-002	-2.05047E-005	0.00000E+000	-8.90000E-002	-8.29272E-004	10	..........a	-327.74
	620	0.621	-1.21201E-001	-2.20086E-005	0.00000E+000	-1.20000E-001	-8.62605E-004	10	..........a	-327.74
	651	0.652	-1.52267E-001	-2.26770E-005	0.00000E+000	-1.51000E-001	-8.12605E-004	10	..........a	-327.74
	682	0.683	-1.83167E-001	-2.24263E-005	0.00000E+000	-1.82000E-001	-7.62605E-004	10	..........a	-327.74
	713	0.714	-2.14117E-001	-2.40973E-005	0.00000E+000	-2.13000E-001	-7.95939E-004	10	..........a	-327.74
	744	0.745	-2.45159E-001	-2.50164E-005	0.00000E+000	-2.44000E-001	-8.45939E-004	10	..........a	-327.74
	775	0.776	-2.76109E-001	-2.83583E-005	0.00000E+000	-2.75000E-001	-7.95939E-004	10	..........a	-327.74
	806	0.807	-3.07126E-001	-2.97787E-005	0.00000E+000	-3.06000E-001	-7.79272E-004	10	..........a	-327.74
	837	0.838	-3.38092E-001	-3.37055E-005	0.00000E+000	-3.37000E-001	-8.29272E-004	10	..........a	-327.74
	868	0.869	-3.69142E-001	-3.97211E-005	0.00000E+000	-3.68000E-001	-9.12605E-004	10	..........a	-327.74
	899	0.9	-4.00092E-001	-4.68228E-005	0.00000E+000	-3.99000E-001	-8.79272E-004	10	..........a	-327.74
	930	0.931	-4.31051E-001	-6.31149E-005	0.00000E+000	-4.30000E-001	-8.45939E-004	10	..........a	-327.74
	961	0.962	-4.62059E-001	-1.16002E-004	0.00000E+000	-4.61000E-001	-8.29272E-004	10	..........a	-327.74
	992	0.993	-4.93076E-001	-2.59038E-004	0.00000E+000	-4.92000E-001	-8.29272E-004	10	..........a	-327.74
	1023	1.024	-5.24117E-001	-5.39013E-004	0.00000E+000	-5.23000E-001	-7.62605E-004	10	..........a	-327.74
	1054	1.055	-5.55042E-001	-8.18737E-004	0.00000E+000	-5.54000E-001	-8.45939E-004	10	..........a	-327.74
	1085	1.086	-5.86017E-001	-8.37702E-004	0.00000E+000	-5.85000E-001	-8.29272E-004	10	..........a	-327.74
	1116	1.117	-6.16992E-001	-6.65173E-004	0.00000E+000	-6.16000E-001	-8.62605E-004	10	..........a	-327.74
	1147	1.148	-6.47992E-001	-5.53216E-004	0.00000E+000	-6.47000E-001	-8.45939E-004	10	..........a	-327.74
	1178	1.179	-6.78934E-001	-4.84873E-004	0.00000E+000	-6.78000E-001	-8.29272E-004	10	..........a	-327.74
	1209	1.21	-7.09984E-001	-4.37082E-004	0.00000E+000	-7.09000E-001	-8.62605E-004	10	..........a	-327.74
	1240	1.241	-7.40984E-001	-4.00906E-004	0.00000E+000	-7.40000E-001	-9.12605E-004	10	..........a	-327.74
	1271	1.272	-7.71909E-001	-3.70995E-004	0.00000E+000	-7.71000E-001	-8.12605E-004	10	..........a	-327.74
	1302	1.303	-8.02942E-001	-3.48102E-004	0.00000E+000	-8.02000E-001	-8.29272E-004	10	..........a	-327.74
	1333	1.334	-8.33859E-001	-3.29053E-004	0.00000E+000	-8.33000E-001	-8.95939E-004	10	..........a	-327.74
	1364	1.365	-8.64884E-001	-3.12176E-004	0.00000E+000	-8.64000E-001	-8.45939E-004	10	..........a	-327.74
	1395	1.396	-8.95892E-001	-3.00061E-004	0.00000E+000	-8.95000E-001	-7.95939E-004	10	..........a	-327.74
	1426	1.427	-9.26834E-001	-2.86610E-004	0.00000E+000	-9.26000E-001	-7.29272E-004	10	..........a	-327.74
	1457	1.458	-9.57834E-001	-2.77169E-004	0.00000E+000	-9.57000E-001	-8.79272E-004	10	..........a	-327.74
	1488	1.489	-9.88792E-001	-2.69482E-004	0.00000E+000	-9.88000E-001	-8.29272E-004	10	..........a	-327.74
	1519	1.52	-9.81834E-001	-2.39822E-004	0.00000E+000	-9.81000E-001	-8.45939E-004	10	..........a	-327.74
	1550	1.551	-9.50751E-001	-2.23029E-004	0.00000E+000	-9.50000E-001	-8.62605E-004	10	..........a	-327.74
	1581	1.582	-9.19834E-001	-2.12669E-004	0.00000E+000	-9.19000E-001	-8.62605E-004	10	..........a	-327.74
	1612	1.613	-8.88867E-001	-2.04146E-004	0.00000E+000	-8.88000E-001	-8.45939E-004	10	..........a	-327.74
	1643	1.644	-8.57867E-001	-1.97713E-004	0.00000E+000	-8.57000E-001	-7.62605E-004	10	..........a	-327.74
	1674	1.675	-8.26826E-001	-1.91531E-004	0.00000E+000	-8.26000E-001	-7.79272E-004	10	..........a	-327.74
	1705	1.706	-7.95876E-001	-1.85766E-004	0.00000E+000	-7.95000E-001	-8.12605E-004	10	..........a	-327.74
	1736	1.737	-7.64976E-001	-1.80084E-004	0.00000E+000	-7.64000E-001	-7.95939E-004	10	..........a	-327.74
	1767	1.768	-7.33984E-001	-1.74152E-004	0.00000E+000	-7.33000E-001	-7.95939E-004	10	..........a	-327.74
	1798	1.799	-7.02942E-001	-1.67886E-004	0.00000E+000	-7.02000E-001	-8.45939E-004	10	..........a	-327.74
	1829	1.83	-6.71951E-001	-1.59447E-004	0.00000E+000	-6.71000E-001	-8.12605E-004	10	..........a	-327.74
	1860	1.861	-6.40926E-001	-1.46748E-004	0.00000E+000	-6.40000E-001	-8.45939E-004	10	..........a	-327.74
	1891	1.892	-6.10009E-001	-1.21767E-004	0.00000E+000	-6.09000E-001	-8.62605E-004	10	..........a	-327.74
	1922	1.923	-5.79017E-001	-6.19452E-005	0.00000E+000	-5.78000E-001	-7.95939E-004	10	..........a	-327.74
	1953	1.954	-5.48126E-001	1.08245E-004	0.00000E+000	-5.47000E-001	-8.95939E-004	10	..........a	-327.74
	1984	1.985	-5.17051E-001	4.61827E-004	0.00000E+000	-5.16000E-001	-8.45939E-004	10	..........a	-327.74
	2015	2.016	-4.86076E-001	6.29845E-004	0.00000E+000	-4.85000E-001	-8.62605E-004	10	..........a	-327.74
	2046	2.047	-4.55059E-001	5.13627E-004	0.00000E+000	-4.54000E-001	-8.95939E-004	10	..........a	-327.74
	2077	2.078	-4.24051E-001	3.87635E-004	0.00000E+000	-4.23000E-001	-8.45939E-004	10	..........a	-327.74
	2108	2.109	-3.93109E-001	3.06425E-004	0.00000E+000	-3.92000E-001	-8.45939E-004	10	..........a	-327.74
	2139	2.14	-3.62034E-001	2.53955E-004	0.00000E+000	-3.61000E-001	-8.79272E-004	10	..........a	-327.74
	2170	2.171	-3.31034E-001	2.20536E-004	0.00000E+000	-3.30000E-001	-8.45939E-004	10	..........a	-327.74
	2201	2.202	-3.00142E-001	1.93716E-004	0.00000E+000	-2.99000E-001	-9.12605E-004	10	..........a	-327.74
	2232	2.233	-2.69142E-001	1.75335E-004	0.00000E+000	-2.68000E-001	-8.29272E-004	10	..........a	-327.74
	2263	2.264	-2.38159E-001	1.58709E-004	0.00000E+000	-2.37000E-001	-7.95939E-004	10	..........a	-327.74
	2294	2.295	-2.07084E-001	1.46427E-004	0.00000E+000	-2.06000E-001	-8.12605E-004	10	..........a	-327.74
	2325	2.326	-1.76209E-001	1.35649E-004	0.00000E+000	-1.75000E-001	-8.79272E-004	10	..........a	-327.74
	2356	2.357	-1.45151E-001	1.25958E-004	0.00000E+000	-1.44000E-001	-8.12605E-004	10	..........a	-327.74
	2387	2.388	-1.14167E-001	1.17352E-004	0.00000E+000	-1.13000E-001	-8.29272E-004	10	..........a	-327.74
	2418	2.419	-8.32007E-002	1.09415E-004	0.00000E+000	-8.20000E-002	-8.62605E-004	10	..........a	-327.74
	2449	2.45	-5.21923E-002	1.03566E-004	0.00000E+000	-5.10000E-002	-8.95939E-004	10	..........a	-327.74
	2480	2.481	-2.12840E-002	9.80520E-005	0.00000E+000	-2.00000E-002	-8.45939E-004	10	..........a	-327.74
	2511	2.512	9.77434E-003	9.37075E-005	0.00000E+000	1.10000E-002	-8.29272E-004	10	..........a	-327.74
	2542	2.543	4.07660E-002	8.86945E-005	0.00000E+000	4.20000E-002	-8.95939E-004	10	..........a	-327.74
	2573	2.574	7.17160E-002	8.58538E-005	0.00000E+000	7.30000E-002	-8.62605E-004	10	..........a	-327.74
	2604	2.605	1.02674E-001	8.03396E-005	0.00000E+000	1.04000E-001	-8.79272E-004	10	..........a	-327.74
	2635	2.636	1.33733E-001	7.69140E-005	0.00000E+000	1.35000E-001	-8.95939E-004	10	..........a	-327.74
	2666	2.667	1.64724E-001	7.29036E-005	0.00000E+000	1.66000E-001	-8.29272E-004	10	..........a	-327.74
	2697	2.698	1.95683E-001	6.79742E-005	0.00000E+000	1.97000E-001	-8.12605E-004	10	..........a	-327.74
	2728	2.729	2.26708E-001	6.57184E-005	0.00000E+000	2.28000E-001	-8.29272E-004	10	..........a	-327.74
	2759	2.76	2.57691E-001	6.21258E-005	0.00000E+000	2.59000E-001	-8.95939E-004	10	..........a	-327.74
	2790	2.791	2.88624E-001	5.91180E-005	0.00000E+000	2.90000E-001	-8.79272E-004	10	..........a	-327.74
	2821	2.822	3.19691E-001	5.71128E-005	0.00000E+000	3.21000E-001	-8.29272E-004	10	..........a	-327.74
	2852	2.853	3.50649E-001	5.55254E-005	0.00000E+000	3.52000E-001	-8.62605E-004	10	..........a	-327.74
	2883	2.884	3.81624E-001	5.41050E-005	0.00000E+000	3.83000E-001	-8.29272E-004	10	..........a	-327.74
	2914	2.915	4.12541E-001	5.21834E-005	0.00000E+000	4.14000E-001	-8.29272E-004	10	..........a	-327.74
	2945	2.946	4.43566E-001	5.15150E-005	0.00000E+000	4.45000E-001	-8.62605E-004	10	..........a	-327.74
	2976	2.977	4.74641E-001	5.06795E-005	0.00000E+000	4.76000E-001	-7.79272E-004	10	..........a	-327.74
	3000	3.001	4.98549E-001	4.86743E-005	0.00000E+000	5.00000E-001	-9.12605E-004	10	..........a	-327.74
CURVE2	TABLE
	Pt	T	Vf	Im	Vu	Sig	Ach	IERange	Over	Temp
	#	s	V vs. Ref.	A	V	V	V	#	bits	deg C
	3001	3.002	4.98624E-001	4.70033E-005	0.00000E+000	5.00000E-001	-8.29272E-004	10	..........a	-327.74