File: data/02-SI/Figures_S9_S11_RDE/18btmapaq-rde/1mkcl-5mmolar18btmapaq-nitrogen-rde-2500mvpers-50mvpers.DTA
EXPLAIN
TAG	LSV
TITLE	LABEL	Linear Sweep Voltammetry	Test &Identifier
DATE	LABEL	1/31/2023	Date
TIME	LABEL	15:31:45	Time
NOTES	NOTES	1	&Notes...

PSTAT	PSTAT	REF3000-21108	Potentiostat
VINIT	POTEN	5.00000E-001	F	&Initial E (V)
VFINAL	POTEN	-1.00000E+000	F	&Final E (V)
SCANRATE	QUANT	4.99999E+001	&Scan Rate (mV/s)
STEPSIZE	QUANT	1.00000E-001	St&ep Size (mV)
IMODE	SELECTOR	0	I/E Range &Mode
IRANGE	QUANT	1.00000E+002	&Max Current (mA)
AREA	QUANT	1.00000E+000	Electrode &Area (cm^2)
ELECTRODETYPE	SELECTOR	0	Electrode Type
STRIPPING	TOGGLE	F	Used for Stripping
POLARITY	TOGGLE	F	Signal Polarity
CONDIT	TWOPARAM	F	1.50000E+001	0.00000E+000	Conditionin&g	Time(s)	E(V)
DELAY	TWOPARAM	F	3.00000E+001	0.00000E+000	Init. De&lay	Time(s)	Stab.(mV/s)
EQDELAY	QUANT	0.00000E+000	Equil. &Time (s)
IRCOMP	SELECTOR	0	IRCom&p
PFCOR	QUANT	5.00000E+001	PF Corr. (ohm)
SAMPLINGMODE	SELECTOR	1	Sampling &Mode
EOC	QUANT	0	Open Circuit (V)
PSTATMODEL	IQUANT	5	Pstat Model
PSTATSECTION	LABEL	REF3000-21108	Pstat Section
PSTATSERIALNO	LABEL	21108	Pstat Serial Number
CTRLMODE	IQUANT	1	Control Mode
ELECTROMETER	IQUANT	0	RE=0 or CS=1
IESTAB	IQUANT	2	I/E Stability
CASPEED	IQUANT	4	Control Amp Speed
CONVENTION	IQUANT	1	Current Convention
ICHRANGE	IQUANT	2	Ich Range
ICHRANGEMODE	TOGGLE	F	Ich Auto Range
ICHOFFSETENABLE	TOGGLE	F	Ich Offset Enable
ICHOFFSET	QUANT	0	Ich Offset (V)
ICHFILTER	IQUANT	2	Ich Filter
VCHRANGE	IQUANT	2	Vch Range
VCHRANGEMODE	TOGGLE	T	Vch Auto Range
VCHOFFSETENABLE	TOGGLE	F	Vch Offset Enable
VCHOFFSET	QUANT	0	Vch Offset (V)
VCHFILTER	IQUANT	2	Vch Filter
ACHRANGE	IQUANT	2	Ach Range
ACHOFFSETENABLE	TOGGLE	F	Ach Offset Enable
ACHOFFSET	QUANT	0	Ach Offset (V)
ACHFILTER	IQUANT	0	Ach Filter
IERANGELOWERLIMIT	IQUANT	2	I/E Range Lower Limit
IERANGEMODE	TOGGLE	T	I/E AutoRange
IERANGE	IQUANT	11	I/E Range
POSFEEDENABLE	TOGGLE	F	Positive Feedback IR Comp
POSFEEDRESISTANCE	QUANT	0	Positive Feedback Resistance (ohm)
ACHSELECT	IQUANT	0	Ach Select
SENSECABLEID	IQUANT	14	Sense Cable ID
PWRCABLEID	IQUANT	7	Power Cable ID
DCCALDATE	LABEL	11/9/2022	DC Calibration Date
ACCALDATE	LABEL	11/9/2022	AC Calibration Date
THERMOSELECT	IQUANT	1	Thermo Select
FRAMEWORKVERSION	LABEL	7.8.2	Framework Version
INSTRUMENTVERSION	LABEL	4.40	Instrument Version
COMPLIANCEVOLTAGE	IQUANT	0	Compliance Voltage
CURVE	TABLE	15001
	Pt	T	Vf	Im	Vu	Sig	Ach	IERange	Over	Cycle	Temp
	#	s	V vs. Ref.	A	V	V	V	#	bits	#	deg C
	0	0.002	4.99533E-001	-2.66994E-005	0.00000E+000	5.00000E-001	-7.79272E-004	11	..........a	0	-327.74
	158	0.318	4.82906E-001	5.96648E-006	0.00000E+000	4.84200E-001	-8.45939E-004	8	..........a	0	-327.74
	316	0.634	4.67068E-001	4.18412E-006	0.00000E+000	4.68400E-001	-9.12605E-004	8	..........a	0	-327.74
	474	0.95	4.51285E-001	3.53209E-006	0.00000E+000	4.52600E-001	-8.79272E-004	8	..........a	0	-327.74
	632	1.266	4.35468E-001	3.14296E-006	0.00000E+000	4.36800E-001	-8.37606E-004	8	..........a	0	-327.74
	790	1.582	4.19752E-001	2.68174E-006	0.00000E+000	4.21000E-001	-8.20939E-004	8	..........a	0	-327.74
	948	1.898	4.03960E-001	2.59050E-006	0.00000E+000	4.05200E-001	-8.45939E-004	8	..........a	0	-327.74
	1106	2.214	3.88181E-001	1.98680E-006	0.00000E+000	3.89400E-001	-8.37606E-004	8	..........a	0	-327.74
	1264	2.53	3.72339E-001	1.50392E-006	0.00000E+000	3.73600E-001	-8.37606E-004	8	..........a	0	-327.74
	1422	2.846	3.56522E-001	1.15937E-006	0.00000E+000	3.57800E-001	-8.45939E-004	8	..........a	0	-327.74
	1580	3.162	3.40743E-001	6.08161E-007	0.00000E+000	3.42000E-001	-8.70939E-004	8	..........a	0	-327.74
	1738	3.478	3.24939E-001	5.13585E-007	0.00000E+000	3.26200E-001	-8.45939E-004	8	..........a	0	-327.74
	1896	3.794	3.09181E-001	4.47341E-007	0.00000E+000	3.10400E-001	-8.37606E-004	8	..........a	0	-327.74
	2054	4.11	2.93397E-001	4.09844E-007	0.00000E+000	2.94600E-001	-8.20939E-004	8	..........a	0	-327.74
	2212	4.426	2.77681E-001	2.49440E-007	0.00000E+000	2.78800E-001	-8.54272E-004	8	..........a	0	-327.74
	2370	4.742	2.61847E-001	1.35699E-007	0.00000E+000	2.63000E-001	-8.62605E-004	8	..........a	0	-327.74
	2528	5.058	2.46035E-001	7.11209E-008	0.00000E+000	2.47200E-001	-8.45939E-004	8	..........a	0	-327.74
	2686	5.374	2.30153E-001	1.30699E-007	0.00000E+000	2.31400E-001	-8.29272E-004	8	..........a	0	-327.74
	2844	5.69	2.14368E-001	8.02868E-008	0.00000E+000	2.15600E-001	-8.70939E-004	8	..........a	0	-327.74
	3002	6.006	1.98573E-001	1.36949E-007	0.00000E+000	1.99800E-001	-8.79272E-004	8	..........a	0	-327.74
	3160	6.322	1.82777E-001	5.69553E-008	0.00000E+000	1.84000E-001	-7.95939E-004	8	..........a	0	-327.74
	3318	6.638	1.66997E-001	-4.34533E-008	0.00000E+000	1.68200E-001	-8.62605E-004	8	..........a	0	-327.74
	3476	6.954	1.51194E-001	5.82052E-008	0.00000E+000	1.52400E-001	-8.62605E-004	8	..........a	0	-327.74
	3634	7.27	1.35387E-001	-3.55372E-008	0.00000E+000	1.36600E-001	-7.70939E-004	8	..........a	0	-327.74
	3792	7.586	1.19625E-001	-1.92608E-007	0.00000E+000	1.20800E-001	-8.54272E-004	8	..........a	0	-327.74
	3950	7.902	1.03828E-001	-1.78442E-007	0.00000E+000	1.05000E-001	-8.70939E-004	8	..........a	0	-327.74
	4108	8.218	8.80422E-002	-4.55364E-008	0.00000E+000	8.92000E-002	-8.29272E-004	8	..........a	0	-327.74
	4266	8.534	7.22572E-002	-1.25113E-007	0.00000E+000	7.34000E-002	-8.04272E-004	8	..........a	0	-327.74
	4424	8.85	5.64551E-002	-1.35113E-007	0.00000E+000	5.76000E-002	-8.12605E-004	8	..........a	0	-327.74
	4582	9.166	4.06631E-002	-1.52611E-007	0.00000E+000	4.18000E-002	-8.12605E-004	8	..........a	0	-327.74
	4740	9.482	2.48635E-002	-5.30358E-008	0.00000E+000	2.60000E-002	-8.54272E-004	8	..........a	0	-327.74
	4898	9.798	9.06372E-003	-4.42865E-008	0.00000E+000	1.02000E-002	-8.29272E-004	8	..........a	0	-327.74
	5056	10.114	-6.72248E-003	-1.97191E-007	0.00000E+000	-5.60001E-003	-8.04272E-004	8	..........a	0	-327.74
	5214	10.43	-2.24956E-002	-4.67863E-008	0.00000E+000	-2.14000E-002	-8.62605E-004	8	..........a	0	-327.74
	5372	10.746	-3.83061E-002	-2.02607E-007	0.00000E+000	-3.72000E-002	-8.29272E-004	8	..........a	0	-327.74
	5530	11.062	-5.40986E-002	-1.27197E-007	0.00000E+000	-5.30000E-002	-8.20939E-004	8	..........a	0	-327.74
	5688	11.378	-6.99024E-002	-1.27197E-007	0.00000E+000	-6.88000E-002	-8.37606E-004	8	..........a	0	-327.74
	5846	11.694	-8.56844E-002	-1.85942E-007	0.00000E+000	-8.46000E-002	-8.37606E-004	8	..........a	0	-327.74
	6004	12.01	-1.01462E-001	-3.30514E-007	0.00000E+000	-1.00400E-001	-7.95939E-004	8	..........a	0	-327.74
	6162	12.326	-1.17264E-001	-2.56353E-007	0.00000E+000	-1.16200E-001	-8.54272E-004	8	..........a	0	-327.74
	6320	12.642	-1.33062E-001	-2.41354E-007	0.00000E+000	-1.32000E-001	-7.79272E-004	8	..........a	0	-327.74
	6478	12.958	-1.48849E-001	-3.01766E-007	0.00000E+000	-1.47800E-001	-7.45939E-004	8	..........a	0	-327.74
	6636	13.274	-1.64639E-001	-4.53837E-007	0.00000E+000	-1.63600E-001	-8.12605E-004	8	..........a	0	-327.74
	6794	13.59	-1.80447E-001	-5.41330E-007	0.00000E+000	-1.79400E-001	-8.70939E-004	8	..........a	0	-327.74
	6952	13.906	-1.96242E-001	-4.04674E-007	0.00000E+000	-1.95200E-001	-8.37606E-004	8	..........a	0	-327.74
	7110	14.222	-2.12027E-001	-4.37172E-007	0.00000E+000	-2.11000E-001	-8.37606E-004	8	..........a	0	-327.74
	7268	14.538	-2.27828E-001	-5.40913E-007	0.00000E+000	-2.26800E-001	-8.54272E-004	8	..........a	0	-327.74
	7426	14.854	-2.43610E-001	-6.53404E-007	0.00000E+000	-2.42600E-001	-8.20939E-004	8	..........a	0	-327.74
	7584	15.17	-2.59417E-001	-6.58820E-007	0.00000E+000	-2.58400E-001	-7.95939E-004	8	..........a	0	-327.74
	7742	15.486	-2.75165E-001	-7.60896E-007	0.00000E+000	-2.74200E-001	-8.62605E-004	8	..........a	0	-327.74
	7900	15.802	-2.91019E-001	-9.45881E-007	0.00000E+000	-2.90000E-001	-8.20939E-004	8	..........a	0	-327.74
	8058	16.118	-3.06778E-001	-1.27127E-006	0.00000E+000	-3.05800E-001	-7.79272E-004	8	..........a	0	-327.74
	8216	16.434	-3.22536E-001	-1.53375E-006	0.00000E+000	-3.21600E-001	-8.12605E-004	8	..........a	0	-327.74
	8374	16.75	-3.38303E-001	-2.18203E-006	0.00000E+000	-3.37400E-001	-8.12605E-004	8	..........a	0	-327.74
	8532	17.066	-3.54123E-001	-2.51742E-006	0.00000E+000	-3.53200E-001	-8.04272E-004	8	..........a	0	-327.74
	8690	17.382	-3.69936E-001	-3.71399E-006	0.00000E+000	-3.69000E-001	-8.62605E-004	8	..........a	0	-327.74
	8848	17.698	-3.85698E-001	-5.37344E-006	0.00000E+000	-3.84800E-001	-8.12605E-004	8	..........a	0	-327.74
	9006	18.014	-4.01544E-001	-8.11781E-006	0.00000E+000	-4.00600E-001	-8.37606E-004	8	..........a	0	-327.74
	9164	18.33	-4.17323E-001	-1.25562E-005	0.00000E+000	-4.16400E-001	-8.45939E-004	8	..........a	0	-327.74
	9322	18.646	-4.33098E-001	-2.02268E-005	0.00000E+000	-4.32200E-001	-8.29272E-004	8	..........a	0	-327.74
	9480	18.962	-4.48848E-001	-3.28962E-005	0.00000E+000	-4.48000E-001	-8.29272E-004	8	..........a	0	-327.74
	9638	19.278	-4.64586E-001	-5.40387E-005	0.00000E+000	-4.63800E-001	-8.70939E-004	8	..........a	0	-327.74
	9796	19.594	-4.80361E-001	-9.10274E-005	0.00000E+000	-4.79600E-001	-8.20939E-004	8	..........a	0	-327.74
	9954	19.91	-4.96203E-001	-1.50208E-004	0.00000E+000	-4.95400E-001	-8.37606E-004	8	..........a	0	-327.74
	10112	20.226	-5.11865E-001	-2.38737E-004	0.00000E+000	-5.11200E-001	-8.37606E-004	8	..........a	0	-327.74
	10270	20.542	-5.27825E-001	-3.53292E-004	0.00000E+000	-5.27000E-001	-8.45939E-004	9	..........a	0	-327.74
	10428	20.858	-5.43592E-001	-4.62511E-004	0.00000E+000	-5.42800E-001	-8.79272E-004	9	..........a	0	-327.74
	10586	21.174	-5.59429E-001	-5.36118E-004	0.00000E+000	-5.58600E-001	-8.20939E-004	9	..........a	0	-327.74
	10744	21.49	-5.75246E-001	-5.75879E-004	0.00000E+000	-5.74400E-001	-8.37606E-004	9	..........a	0	-327.74
	10902	21.806	-5.90908E-001	-5.92698E-004	0.00000E+000	-5.90200E-001	-8.37606E-004	9	..........a	0	-327.74
	11060	22.122	-6.06729E-001	-6.01189E-004	0.00000E+000	-6.06000E-001	-7.79272E-004	9	..........a	0	-327.74
	11218	22.438	-6.22475E-001	-6.03023E-004	0.00000E+000	-6.21800E-001	-8.04272E-004	9	..........a	0	-327.74
	11376	22.754	-6.38333E-001	-6.04323E-004	0.00000E+000	-6.37600E-001	-7.95939E-004	9	..........a	0	-327.74
	11534	23.07	-6.54096E-001	-6.05827E-004	0.00000E+000	-6.53400E-001	-8.29272E-004	9	..........a	0	-327.74
	11692	23.386	-6.69875E-001	-6.09475E-004	0.00000E+000	-6.69200E-001	-8.70939E-004	9	..........a	0	-327.74
	11850	23.702	-6.85696E-001	-6.07774E-004	0.00000E+000	-6.85000E-001	-8.62605E-004	9	..........a	0	-327.74
	12008	24.018	-7.01500E-001	-6.06412E-004	0.00000E+000	-7.00800E-001	-8.37606E-004	9	..........a	0	-327.74
	12166	24.334	-7.17242E-001	-6.13023E-004	0.00000E+000	-7.16600E-001	-8.29272E-004	9	..........a	0	-327.74
	12324	24.65	-7.33108E-001	-6.12300E-004	0.00000E+000	-7.32400E-001	-8.04272E-004	9	..........a	0	-327.74
	12482	24.966	-7.48871E-001	-6.06805E-004	0.00000E+000	-7.48200E-001	-8.37606E-004	9	..........a	0	-327.74
	12640	25.282	-7.64717E-001	-6.06726E-004	0.00000E+000	-7.64000E-001	-8.37606E-004	9	..........a	0	-327.74
	12798	25.598	-7.80500E-001	-6.09421E-004	0.00000E+000	-7.79800E-001	-8.20939E-004	9	..........a	0	-327.74
	12956	25.914	-7.96262E-001	-6.08827E-004	0.00000E+000	-7.95600E-001	-8.29272E-004	9	..........a	0	-327.74
	13114	26.23	-8.12012E-001	-6.12342E-004	0.00000E+000	-8.11400E-001	-8.95939E-004	9	..........a	0	-327.74
	13272	26.546	-8.27746E-001	-6.11268E-004	0.00000E+000	-8.27200E-001	-8.54272E-004	9	..........a	0	-327.74
	13430	26.862	-8.43625E-001	-6.09964E-004	0.00000E+000	-8.43000E-001	-8.37606E-004	9	..........a	0	-327.74
	13588	27.178	-8.59400E-001	-6.10766E-004	0.00000E+000	-8.58800E-001	-8.45939E-004	9	..........a	0	-327.74
	13746	27.494	-8.75208E-001	-6.11460E-004	0.00000E+000	-8.74600E-001	-8.62605E-004	9	..........a	0	-327.74
	13904	27.81	-8.90987E-001	-6.08702E-004	0.00000E+000	-8.90400E-001	-8.54272E-004	9	..........a	0	-327.74
	14062	28.126	-9.06767E-001	-6.07457E-004	0.00000E+000	-9.06200E-001	-8.37606E-004	9	..........a	0	-327.74
	14220	28.442	-9.22579E-001	-6.11126E-004	0.00000E+000	-9.22000E-001	-8.45939E-004	9	..........a	0	-327.74
	14378	28.758	-9.38312E-001	-6.09149E-004	0.00000E+000	-9.37800E-001	-7.95939E-004	9	..........a	0	-327.74
	14536	29.074	-9.54142E-001	-6.14586E-004	0.00000E+000	-9.53600E-001	-8.12605E-004	9	..........a	0	-327.74
	14694	29.39	-9.69946E-001	-6.11351E-004	0.00000E+000	-9.69400E-001	-8.79272E-004	9	..........a	0	-327.74
	14852	29.706	-9.85725E-001	-6.11527E-004	0.00000E+000	-9.85200E-001	-8.29272E-004	9	..........a	0	-327.74
	15000	30.002	-1.00048E+000	-6.10950E-004	0.00000E+000	-1.00000E+000	-8.29272E-004	9	..........a	0	-327.74