File: data/02-SI/Figures_S9_S11_RDE/18btmapaq-rde/1mkcl-18btmapaq-nitrogen-2000mvpers.DTA
EXPLAIN
TAG	CV
TITLE	LABEL	Cyclic Voltammetry	Test &Identifier
DATE	LABEL	1/31/2023	Date
TIME	LABEL	15:22:45	Time
NOTES	NOTES	1	&Notes...

PSTAT	PSTAT	REF3000-21108	Potentiostat
VINIT	POTEN	5.00000E-001	F	Initial &E (V)
VLIMIT1	POTEN	-1.00000E+000	F	Scan Limit &1 (V)
VLIMIT2	POTEN	5.00000E-001	F	Scan Limit &2 (V)
VFINAL	POTEN	5.00000E-001	F	Final &E (V)
SCANRATE	QUANT	2.00000E+003	&Scan Rate (mV/s)
STEPSIZE	QUANT	1.00000E+000	St&ep Size (mV)
CYCLES	IQUANT	1	C&ycles (#)
IMODE	SELECTOR	1	I/E Range &Mode
IRANGE	QUANT	1.00000E+001	&Max Current (mA)
AREA	QUANT	1.00000E+000	Electrode &Area (cm^2)
ELECTRODETYPE	SELECTOR	0	Electrode Type
STRIPPING	TOGGLE	F	Used for Stripping
POLARITY	TOGGLE	F	Signal Polarity
CONDIT	TWOPARAM	F	1.50000E+001	0.00000E+000	Conditionin&g	Time(s)	E(V)
DELAY	TWOPARAM	F	5.00000E+000	0.00000E+000	Init. De&lay	Time(s)	Stab.(mV/s)
EQDELAY	QUANT	0.00000E+000	Equil. &Time (s)
IRCOMP	SELECTOR	0	IRCom&p
PFCOR	QUANT	5.00000E+001	PF Corr. (ohm)
SAMPLINGMODE	SELECTOR	1	Sampling &Mode
EOC	QUANT	0	Open Circuit (V)
PSTATMODEL	IQUANT	5	Pstat Model
PSTATSECTION	LABEL	REF3000-21108	Pstat Section
PSTATSERIALNO	LABEL	21108	Pstat Serial Number
CTRLMODE	IQUANT	1	Control Mode
ELECTROMETER	IQUANT	0	RE=0 or CS=1
IESTAB	IQUANT	2	I/E Stability
CASPEED	IQUANT	4	Control Amp Speed
CONVENTION	IQUANT	1	Current Convention
ICHRANGE	IQUANT	2	Ich Range
ICHRANGEMODE	TOGGLE	F	Ich Auto Range
ICHOFFSETENABLE	TOGGLE	F	Ich Offset Enable
ICHOFFSET	QUANT	0	Ich Offset (V)
ICHFILTER	IQUANT	1	Ich Filter
VCHRANGE	IQUANT	2	Vch Range
VCHRANGEMODE	TOGGLE	F	Vch Auto Range
VCHOFFSETENABLE	TOGGLE	F	Vch Offset Enable
VCHOFFSET	QUANT	0	Vch Offset (V)
VCHFILTER	IQUANT	1	Vch Filter
ACHRANGE	IQUANT	2	Ach Range
ACHOFFSETENABLE	TOGGLE	F	Ach Offset Enable
ACHOFFSET	QUANT	0	Ach Offset (V)
ACHFILTER	IQUANT	0	Ach Filter
IERANGELOWERLIMIT	IQUANT	2	I/E Range Lower Limit
IERANGEMODE	TOGGLE	F	I/E AutoRange
IERANGE	IQUANT	10	I/E Range
POSFEEDENABLE	TOGGLE	F	Positive Feedback IR Comp
POSFEEDRESISTANCE	QUANT	0	Positive Feedback Resistance (ohm)
ACHSELECT	IQUANT	0	Ach Select
SENSECABLEID	IQUANT	14	Sense Cable ID
PWRCABLEID	IQUANT	7	Power Cable ID
DCCALDATE	LABEL	11/9/2022	DC Calibration Date
ACCALDATE	LABEL	11/9/2022	AC Calibration Date
THERMOSELECT	IQUANT	1	Thermo Select
FRAMEWORKVERSION	LABEL	7.8.2	Framework Version
INSTRUMENTVERSION	LABEL	4.40	Instrument Version
COMPLIANCEVOLTAGE	IQUANT	0	Compliance Voltage
CURVE1	TABLE
	Pt	T	Vf	Im	Vu	Sig	Ach	IERange	Over	Temp
	#	s	V vs. Ref.	A	V	V	V	#	bits	deg C
	0	0.0005	4.98858E-001	2.24398E-005	0.00000E+000	5.00000E-001	-8.62605E-004	10	..........a	-327.74
	31	0.016	4.67891E-001	7.56795E-006	0.00000E+000	4.69000E-001	-7.95939E-004	10	..........a	-327.74
	62	0.0315	4.36874E-001	2.05368E-006	0.00000E+000	4.38000E-001	-8.29272E-004	10	..........a	-327.74
	93	0.047	4.06091E-001	-7.87003E-007	0.00000E+000	4.07000E-001	-8.29272E-004	10	..........a	-327.74
	124	0.0625	3.74808E-001	-7.13676E-006	0.00000E+000	3.76000E-001	-7.95939E-004	10	..........a	-327.74
	155	0.078	3.43908E-001	-8.64066E-006	0.00000E+000	3.45000E-001	-7.95939E-004	10	..........a	-327.74
	186	0.0935	3.12891E-001	-1.13142E-005	0.00000E+000	3.14000E-001	-8.29272E-004	10	..........a	-327.74
	217	0.109	2.81891E-001	-1.11471E-005	0.00000E+000	2.83000E-001	-8.29272E-004	10	..........a	-327.74
	248	0.1245	2.50958E-001	-1.13142E-005	0.00000E+000	2.52000E-001	-6.29272E-004	10	..........a	-327.74
	279	0.14	2.19908E-001	-1.11471E-005	0.00000E+000	2.21000E-001	-7.95939E-004	10	..........a	-327.74
	310	0.1555	1.88891E-001	-1.16484E-005	0.00000E+000	1.90000E-001	-8.29272E-004	10	..........a	-327.74
	341	0.171	1.58058E-001	-1.29852E-005	0.00000E+000	1.59000E-001	-6.62606E-004	10	..........a	-327.74
	372	0.1865	1.26891E-001	-1.43220E-005	0.00000E+000	1.28000E-001	-8.29272E-004	10	..........a	-327.74
	403	0.202	9.59410E-002	-1.34865E-005	0.00000E+000	9.70000E-002	-7.95939E-004	10	..........a	-327.74
	434	0.2175	6.52743E-002	-1.41549E-005	0.00000E+000	6.60000E-002	-6.29272E-004	10	..........a	-327.74
	465	0.233	3.40910E-002	-1.38207E-005	0.00000E+000	3.50000E-002	-7.95939E-004	10	..........a	-327.74
	496	0.2485	3.19100E-003	-1.34865E-005	0.00000E+000	4.00001E-003	-8.62605E-004	10	..........a	-327.74
	527	0.264	-2.79090E-002	-1.56588E-005	0.00000E+000	-2.70000E-002	-7.62605E-004	10	..........a	-327.74
	558	0.2795	-5.89090E-002	-1.51575E-005	0.00000E+000	-5.80000E-002	-8.29272E-004	10	..........a	-327.74
	589	0.295	-8.99923E-002	-1.58259E-005	0.00000E+000	-8.90000E-002	-8.29272E-004	10	..........a	-327.74
	620	0.3105	-1.20942E-001	-1.58259E-005	0.00000E+000	-1.20000E-001	-8.29272E-004	10	..........a	-327.74
	651	0.326	-1.51909E-001	-1.48233E-005	0.00000E+000	-1.51000E-001	-8.29272E-004	10	..........a	-327.74
	682	0.3415	-1.82809E-001	-1.78311E-005	0.00000E+000	-1.82000E-001	-8.95939E-004	10	..........a	-327.74
	713	0.357	-2.13909E-001	-1.81653E-005	0.00000E+000	-2.13000E-001	-7.29272E-004	10	..........a	-327.74
	744	0.3725	-2.44859E-001	-1.93350E-005	0.00000E+000	-2.44000E-001	-7.29272E-004	10	..........a	-327.74
	775	0.388	-2.75826E-001	-2.33454E-005	0.00000E+000	-2.75000E-001	-8.29272E-004	10	..........a	-327.74
	806	0.4035	-3.06792E-001	-2.61860E-005	0.00000E+000	-3.06000E-001	-7.95939E-004	10	..........a	-327.74
	837	0.419	-3.37859E-001	-3.05306E-005	0.00000E+000	-3.37000E-001	-6.95939E-004	10	..........a	-327.74
	868	0.4345	-3.68926E-001	-3.92198E-005	0.00000E+000	-3.68000E-001	-8.95939E-004	10	..........a	-327.74
	899	0.45	-3.99826E-001	-5.72665E-005	0.00000E+000	-3.99000E-001	-7.29272E-004	10	..........a	-327.74
	930	0.4655	-4.30726E-001	-8.83469E-005	0.00000E+000	-4.30000E-001	-7.29272E-004	10	..........a	-327.74
	961	0.481	-4.61726E-001	-1.64210E-004	0.00000E+000	-4.61000E-001	-8.29272E-004	10	..........a	-327.74
	992	0.4965	-4.92709E-001	-3.50191E-004	0.00000E+000	-4.92000E-001	-8.29272E-004	10	..........a	-327.74
	1023	0.512	-5.23792E-001	-6.94415E-004	0.00000E+000	-5.23000E-001	-8.62605E-004	10	..........a	-327.74
	1054	0.5275	-5.54726E-001	-1.05418E-003	0.00000E+000	-5.54000E-001	-6.62606E-004	10	..........a	-327.74
	1085	0.543	-5.85676E-001	-1.19638E-003	0.00000E+000	-5.85000E-001	-7.95939E-004	10	..........a	-327.74
	1116	0.5585	-6.16692E-001	-1.01140E-003	0.00000E+000	-6.16000E-001	-8.29272E-004	10	..........a	-327.74
	1147	0.574	-6.47709E-001	-8.29097E-004	0.00000E+000	-6.47000E-001	-7.29272E-004	10	..........a	-327.74
	1178	0.5895	-6.78726E-001	-7.20984E-004	0.00000E+000	-6.78000E-001	-9.95939E-004	10	..........a	-327.74
	1209	0.605	-7.09676E-001	-6.46123E-004	0.00000E+000	-7.09000E-001	-7.95939E-004	10	..........a	-327.74
	1240	0.6205	-7.40709E-001	-5.89143E-004	0.00000E+000	-7.40000E-001	-7.62605E-004	10	..........a	-327.74
	1271	0.636	-7.71509E-001	-5.42188E-004	0.00000E+000	-7.71000E-001	-8.29272E-004	10	..........a	-327.74
	1302	0.6515	-8.02659E-001	-5.05259E-004	0.00000E+000	-8.02000E-001	-7.95939E-004	10	..........a	-327.74
	1333	0.667	-8.33626E-001	-4.75181E-004	0.00000E+000	-8.33000E-001	-8.29272E-004	10	..........a	-327.74
	1364	0.6825	-8.64642E-001	-4.50116E-004	0.00000E+000	-8.64000E-001	-7.29272E-004	10	..........a	-327.74
	1395	0.698	-8.95509E-001	-4.25218E-004	0.00000E+000	-8.95000E-001	-8.29272E-004	10	..........a	-327.74
	1426	0.7135	-9.26509E-001	-4.07005E-004	0.00000E+000	-9.26000E-001	-8.29272E-004	10	..........a	-327.74
	1457	0.729	-9.57592E-001	-3.93971E-004	0.00000E+000	-9.57000E-001	-8.29272E-004	10	..........a	-327.74
	1488	0.7445	-9.88592E-001	-3.77595E-004	0.00000E+000	-9.88000E-001	-6.62606E-004	10	..........a	-327.74
	1519	0.76	-9.81576E-001	-3.23455E-004	0.00000E+000	-9.81000E-001	-8.29272E-004	10	..........a	-327.74
	1550	0.7755	-9.50559E-001	-2.93712E-004	0.00000E+000	-9.50000E-001	-7.62605E-004	10	..........a	-327.74
	1581	0.791	-9.19526E-001	-2.74996E-004	0.00000E+000	-9.19000E-001	-7.95939E-004	10	..........a	-327.74
	1612	0.8065	-8.88642E-001	-2.63968E-004	0.00000E+000	-8.88000E-001	-6.62606E-004	10	..........a	-327.74
	1643	0.822	-8.57609E-001	-2.51268E-004	0.00000E+000	-8.57000E-001	-8.29272E-004	10	..........a	-327.74
	1674	0.8375	-8.26642E-001	-2.41577E-004	0.00000E+000	-8.26000E-001	-8.29272E-004	10	..........a	-327.74
	1705	0.853	-7.95542E-001	-2.30214E-004	0.00000E+000	-7.95000E-001	-7.95939E-004	10	..........a	-327.74
	1736	0.8685	-7.64659E-001	-2.22527E-004	0.00000E+000	-7.64000E-001	-7.62605E-004	10	..........a	-327.74
	1767	0.884	-7.33576E-001	-2.10830E-004	0.00000E+000	-7.33000E-001	-7.95939E-004	10	..........a	-327.74
	1798	0.8995	-7.02726E-001	-2.01139E-004	0.00000E+000	-7.02000E-001	-6.95939E-004	10	..........a	-327.74
	1829	0.915	-6.71642E-001	-1.86768E-004	0.00000E+000	-6.71000E-001	-8.29272E-004	10	..........a	-327.74
	1860	0.9305	-6.40659E-001	-1.67719E-004	0.00000E+000	-6.40000E-001	-7.29272E-004	10	..........a	-327.74
	1891	0.946	-6.09909E-001	-1.25944E-004	0.00000E+000	-6.09000E-001	-8.29272E-004	10	..........a	-327.74
	1922	0.9615	-5.78776E-001	-3.40397E-005	0.00000E+000	-5.78000E-001	-8.95939E-004	10	..........a	-327.74
	1953	0.977	-5.47576E-001	1.87199E-004	0.00000E+000	-5.47000E-001	-8.95939E-004	10	..........a	-327.74
	1984	0.9925	-5.16842E-001	6.24832E-004	0.00000E+000	-5.16000E-001	-8.29272E-004	10	..........a	-327.74
	2015	1.008	-4.85809E-001	9.19594E-004	0.00000E+000	-4.85000E-001	-7.62605E-004	10	..........a	-327.74
	2046	1.0235	-4.54776E-001	7.96944E-004	0.00000E+000	-4.54000E-001	-6.29272E-004	10	..........a	-327.74
	2077	1.039	-4.23876E-001	6.08122E-004	0.00000E+000	-4.23000E-001	-8.29272E-004	10	..........a	-327.74
	2108	1.0545	-3.92792E-001	4.86307E-004	0.00000E+000	-3.92000E-001	-8.29272E-004	10	..........a	-327.74
	2139	1.07	-3.61792E-001	4.09775E-004	0.00000E+000	-3.61000E-001	-8.29272E-004	10	..........a	-327.74
	2170	1.0855	-3.30742E-001	3.57975E-004	0.00000E+000	-3.30000E-001	-8.29272E-004	10	..........a	-327.74
	2201	1.101	-2.99859E-001	3.18539E-004	0.00000E+000	-2.99000E-001	-7.95939E-004	10	..........a	-327.74
	2232	1.1165	-2.68809E-001	2.90467E-004	0.00000E+000	-2.68000E-001	-8.29272E-004	10	..........a	-327.74
	2263	1.132	-2.37926E-001	2.68075E-004	0.00000E+000	-2.37000E-001	-7.95939E-004	10	..........a	-327.74
	2294	1.1475	-2.06792E-001	2.49527E-004	0.00000E+000	-2.06000E-001	-8.95939E-004	10	..........a	-327.74
	2325	1.163	-1.75926E-001	2.34488E-004	0.00000E+000	-1.75000E-001	-8.29272E-004	10	..........a	-327.74
	2356	1.1785	-1.45009E-001	2.19115E-004	0.00000E+000	-1.44000E-001	-6.95939E-004	10	..........a	-327.74
	2387	1.194	-1.13926E-001	2.06750E-004	0.00000E+000	-1.13000E-001	-8.95939E-004	10	..........a	-327.74
	2418	1.2095	-8.30423E-002	1.97894E-004	0.00000E+000	-8.20000E-002	-7.95939E-004	10	..........a	-327.74
	2449	1.225	-5.19257E-002	1.87534E-004	0.00000E+000	-5.10000E-002	-8.29272E-004	10	..........a	-327.74
	2480	1.2405	-2.10423E-002	1.78176E-004	0.00000E+000	-2.00000E-002	-8.62605E-004	10	..........a	-327.74
	2511	1.256	1.00410E-002	1.70489E-004	0.00000E+000	1.10000E-002	-6.95939E-004	10	..........a	-327.74
	2542	1.2715	4.11743E-002	1.65309E-004	0.00000E+000	4.20000E-002	-8.29272E-004	10	..........a	-327.74
	2573	1.287	7.18243E-002	1.57122E-004	0.00000E+000	7.30000E-002	-8.29272E-004	10	..........a	-327.74
	2604	1.3025	1.03008E-001	1.52443E-004	0.00000E+000	1.04000E-001	-8.62605E-004	10	..........a	-327.74
	2635	1.318	1.34058E-001	1.46260E-004	0.00000E+000	1.35000E-001	-8.29272E-004	10	..........a	-327.74
	2666	1.3335	1.64874E-001	1.39576E-004	0.00000E+000	1.66000E-001	-7.95939E-004	10	..........a	-327.74
	2697	1.349	1.95891E-001	1.33226E-004	0.00000E+000	1.97000E-001	-8.62605E-004	10	..........a	-327.74
	2728	1.3645	2.26991E-001	1.29049E-004	0.00000E+000	2.28000E-001	-7.62605E-004	10	..........a	-327.74
	2759	1.38	2.57974E-001	1.24036E-004	0.00000E+000	2.59000E-001	-8.29272E-004	10	..........a	-327.74
	2790	1.3955	2.88958E-001	1.19357E-004	0.00000E+000	2.90000E-001	-7.29272E-004	10	..........a	-327.74
	2821	1.411	3.19891E-001	1.17018E-004	0.00000E+000	3.21000E-001	-7.62605E-004	10	..........a	-327.74
	2852	1.4265	3.50891E-001	1.15180E-004	0.00000E+000	3.52000E-001	-8.29272E-004	10	..........a	-327.74
	2883	1.442	3.81958E-001	1.12005E-004	0.00000E+000	3.83000E-001	-8.95939E-004	10	..........a	-327.74
	2914	1.4575	4.12874E-001	1.10835E-004	0.00000E+000	4.14000E-001	-7.62605E-004	10	..........a	-327.74
	2945	1.473	4.43741E-001	1.06658E-004	0.00000E+000	4.45000E-001	-5.62606E-004	10	..........a	-327.74
	2976	1.4885	4.74874E-001	1.04485E-004	0.00000E+000	4.76000E-001	-7.95939E-004	10	..........a	-327.74
	3000	1.5005	4.98858E-001	1.01812E-004	0.00000E+000	5.00000E-001	-7.95939E-004	10	..........a	-327.74
CURVE2	TABLE
	Pt	T	Vf	Im	Vu	Sig	Ach	IERange	Over	Temp
	#	s	V vs. Ref.	A	V	V	V	#	bits	deg C
	3001	1.501	4.98824E-001	9.99737E-005	0.00000E+000	5.00000E-001	-8.29272E-004	10	..........a	-327.74