File: data/02-SI/Figures_S9_S11_RDE/18btmapaq-rde/1mkcl-18btmapaq-nitrogen-3000mvpers.DTA
EXPLAIN
TAG	CV
TITLE	LABEL	Cyclic Voltammetry	Test &Identifier
DATE	LABEL	1/31/2023	Date
TIME	LABEL	15:22:54	Time
NOTES	NOTES	1	&Notes...

PSTAT	PSTAT	REF3000-21108	Potentiostat
VINIT	POTEN	5.00000E-001	F	Initial &E (V)
VLIMIT1	POTEN	-1.00000E+000	F	Scan Limit &1 (V)
VLIMIT2	POTEN	5.00000E-001	F	Scan Limit &2 (V)
VFINAL	POTEN	5.00000E-001	F	Final &E (V)
SCANRATE	QUANT	2.99999E+003	&Scan Rate (mV/s)
STEPSIZE	QUANT	1.00000E+000	St&ep Size (mV)
CYCLES	IQUANT	1	C&ycles (#)
IMODE	SELECTOR	1	I/E Range &Mode
IRANGE	QUANT	1.00000E+001	&Max Current (mA)
AREA	QUANT	1.00000E+000	Electrode &Area (cm^2)
ELECTRODETYPE	SELECTOR	0	Electrode Type
STRIPPING	TOGGLE	F	Used for Stripping
POLARITY	TOGGLE	F	Signal Polarity
CONDIT	TWOPARAM	F	1.50000E+001	0.00000E+000	Conditionin&g	Time(s)	E(V)
DELAY	TWOPARAM	F	5.00000E+000	0.00000E+000	Init. De&lay	Time(s)	Stab.(mV/s)
EQDELAY	QUANT	0.00000E+000	Equil. &Time (s)
IRCOMP	SELECTOR	0	IRCom&p
PFCOR	QUANT	5.00000E+001	PF Corr. (ohm)
SAMPLINGMODE	SELECTOR	1	Sampling &Mode
EOC	QUANT	0	Open Circuit (V)
PSTATMODEL	IQUANT	5	Pstat Model
PSTATSECTION	LABEL	REF3000-21108	Pstat Section
PSTATSERIALNO	LABEL	21108	Pstat Serial Number
CTRLMODE	IQUANT	1	Control Mode
ELECTROMETER	IQUANT	0	RE=0 or CS=1
IESTAB	IQUANT	2	I/E Stability
CASPEED	IQUANT	4	Control Amp Speed
CONVENTION	IQUANT	1	Current Convention
ICHRANGE	IQUANT	2	Ich Range
ICHRANGEMODE	TOGGLE	F	Ich Auto Range
ICHOFFSETENABLE	TOGGLE	F	Ich Offset Enable
ICHOFFSET	QUANT	0	Ich Offset (V)
ICHFILTER	IQUANT	1	Ich Filter
VCHRANGE	IQUANT	2	Vch Range
VCHRANGEMODE	TOGGLE	F	Vch Auto Range
VCHOFFSETENABLE	TOGGLE	F	Vch Offset Enable
VCHOFFSET	QUANT	0	Vch Offset (V)
VCHFILTER	IQUANT	1	Vch Filter
ACHRANGE	IQUANT	2	Ach Range
ACHOFFSETENABLE	TOGGLE	F	Ach Offset Enable
ACHOFFSET	QUANT	0	Ach Offset (V)
ACHFILTER	IQUANT	0	Ach Filter
IERANGELOWERLIMIT	IQUANT	2	I/E Range Lower Limit
IERANGEMODE	TOGGLE	F	I/E AutoRange
IERANGE	IQUANT	10	I/E Range
POSFEEDENABLE	TOGGLE	F	Positive Feedback IR Comp
POSFEEDRESISTANCE	QUANT	0	Positive Feedback Resistance (ohm)
ACHSELECT	IQUANT	0	Ach Select
SENSECABLEID	IQUANT	14	Sense Cable ID
PWRCABLEID	IQUANT	7	Power Cable ID
DCCALDATE	LABEL	11/9/2022	DC Calibration Date
ACCALDATE	LABEL	11/9/2022	AC Calibration Date
THERMOSELECT	IQUANT	1	Thermo Select
FRAMEWORKVERSION	LABEL	7.8.2	Framework Version
INSTRUMENTVERSION	LABEL	4.40	Instrument Version
COMPLIANCEVOLTAGE	IQUANT	0	Compliance Voltage
CURVE1	TABLE
	Pt	T	Vf	Im	Vu	Sig	Ach	IERange	Over	Temp
	#	s	V vs. Ref.	A	V	V	V	#	bits	deg C
	0	0.000333	4.98866E-001	3.13796E-005	0.00000E+000	5.00000E-001	-8.29272E-004	10	..........a	-327.74
	32	0.011	4.66866E-001	6.81600E-006	0.00000E+000	4.68000E-001	-5.79272E-004	10	..........a	-327.74
	64	0.021667	4.34841E-001	-2.45799E-006	0.00000E+000	4.36000E-001	-7.79272E-004	10	..........a	-327.74
	96	0.032333	4.02891E-001	-4.96448E-006	0.00000E+000	4.04000E-001	-8.29272E-004	10	..........a	-327.74
	128	0.043	3.70866E-001	-9.47615E-006	0.00000E+000	3.72000E-001	-8.29272E-004	10	..........a	-327.74
	160	0.053667	3.38891E-001	-1.42385E-005	0.00000E+000	3.40000E-001	-7.79272E-004	10	..........a	-327.74
	192	0.064333	3.06841E-001	-1.57424E-005	0.00000E+000	3.08000E-001	-8.29272E-004	10	..........a	-327.74
	224	0.075	2.74966E-001	-1.62437E-005	0.00000E+000	2.76000E-001	-7.79272E-004	10	..........a	-327.74
	256	0.085667	2.42841E-001	-1.67450E-005	0.00000E+000	2.44000E-001	-7.79272E-004	10	..........a	-327.74
	288	0.096333	2.10891E-001	-1.69956E-005	0.00000E+000	2.12000E-001	-4.29272E-004	10	..........a	-327.74
	320	0.107	1.78866E-001	-2.15073E-005	0.00000E+000	1.80000E-001	-9.29272E-004	10	..........a	-327.74
	352	0.117667	1.47066E-001	-2.02540E-005	0.00000E+000	1.48000E-001	-7.79272E-004	10	..........a	-327.74
	384	0.128333	1.14966E-001	-2.27605E-005	0.00000E+000	1.16000E-001	-7.79272E-004	10	..........a	-327.74
	416	0.139	8.30910E-002	-2.02540E-005	0.00000E+000	8.40000E-002	-8.29272E-004	10	..........a	-327.74
	448	0.149667	5.10660E-002	-2.05047E-005	0.00000E+000	5.20000E-002	-7.79272E-004	10	..........a	-327.74
	480	0.160333	1.90660E-002	-2.47657E-005	0.00000E+000	2.00000E-002	-8.29272E-004	10	..........a	-327.74
	512	0.171	-1.30340E-002	-2.25099E-005	0.00000E+000	-1.20000E-002	-7.79272E-004	10	..........a	-327.74
	544	0.181667	-4.51090E-002	-2.25099E-005	0.00000E+000	-4.40000E-002	-7.79272E-004	10	..........a	-327.74
	576	0.192333	-7.69590E-002	-2.22592E-005	0.00000E+000	-7.60000E-002	-8.29272E-004	10	..........a	-327.74
	608	0.203	-1.09109E-001	-2.45151E-005	0.00000E+000	-1.08000E-001	-6.79272E-004	10	..........a	-327.74
	640	0.213667	-1.41034E-001	-2.50164E-005	0.00000E+000	-1.40000E-001	-5.79272E-004	10	..........a	-327.74
	672	0.224333	-1.72959E-001	-2.37631E-005	0.00000E+000	-1.72000E-001	-8.29272E-004	10	..........a	-327.74
	704	0.235	-2.04934E-001	-2.47657E-005	0.00000E+000	-2.04000E-001	-8.29272E-004	10	..........a	-327.74
	736	0.245667	-2.36809E-001	-2.75228E-005	0.00000E+000	-2.36000E-001	-5.79272E-004	10	..........a	-327.74
	768	0.256333	-2.68859E-001	-3.25358E-005	0.00000E+000	-2.68000E-001	-7.79272E-004	10	..........a	-327.74
	800	0.267	-3.00859E-001	-3.57942E-005	0.00000E+000	-3.00000E-001	-5.79272E-004	10	..........a	-327.74
	832	0.277667	-3.32759E-001	-4.00553E-005	0.00000E+000	-3.32000E-001	-7.79272E-004	10	..........a	-327.74
	864	0.288333	-3.64934E-001	-4.90786E-005	0.00000E+000	-3.64000E-001	-6.29272E-004	10	..........a	-327.74
	896	0.299	-3.96809E-001	-6.61227E-005	0.00000E+000	-3.96000E-001	-7.29272E-004	10	..........a	-327.74
	928	0.309667	-4.28809E-001	-1.10487E-004	0.00000E+000	-4.28000E-001	-7.79272E-004	10	..........a	-327.74
	960	0.320333	-4.60909E-001	-2.11749E-004	0.00000E+000	-4.60000E-001	-7.79272E-004	10	..........a	-327.74
	992	0.331	-4.92734E-001	-4.28811E-004	0.00000E+000	-4.92000E-001	-8.29272E-004	10	..........a	-327.74
	1024	0.341667	-5.24809E-001	-8.29097E-004	0.00000E+000	-5.24000E-001	-7.29272E-004	10	..........a	-327.74
	1056	0.352333	-5.56734E-001	-1.25119E-003	0.00000E+000	-5.56000E-001	-6.29272E-004	10	..........a	-327.74
	1088	0.363	-5.88759E-001	-1.47226E-003	0.00000E+000	-5.88000E-001	-7.29272E-004	10	..........a	-327.74
	1120	0.373667	-6.20909E-001	-1.29004E-003	0.00000E+000	-6.20000E-001	-5.79272E-004	10	..........a	-327.74
	1152	0.384333	-6.52759E-001	-1.05894E-003	0.00000E+000	-6.52000E-001	-6.29272E-004	10	..........a	-327.74
	1184	0.395	-6.84834E-001	-9.19832E-004	0.00000E+000	-6.84000E-001	-7.79272E-004	10	..........a	-327.74
	1216	0.405667	-7.16709E-001	-8.25838E-004	0.00000E+000	-7.16000E-001	-8.29272E-004	10	..........a	-327.74
	1248	0.416333	-7.48734E-001	-7.49641E-004	0.00000E+000	-7.48000E-001	-5.79272E-004	10	..........a	-327.74
	1280	0.427	-7.80709E-001	-6.89235E-004	0.00000E+000	-7.80000E-001	-6.29272E-004	10	..........a	-327.74
	1312	0.437667	-8.12659E-001	-6.42614E-004	0.00000E+000	-8.12000E-001	-8.29272E-004	10	..........a	-327.74
	1344	0.448333	-8.44709E-001	-6.03012E-004	0.00000E+000	-8.44000E-001	-7.29272E-004	10	..........a	-327.74
	1376	0.459	-8.76709E-001	-5.67169E-004	0.00000E+000	-8.76000E-001	-8.29272E-004	10	..........a	-327.74
	1408	0.469667	-9.08609E-001	-5.38846E-004	0.00000E+000	-9.08000E-001	-7.29272E-004	10	..........a	-327.74
	1440	0.480333	-9.40584E-001	-5.14783E-004	0.00000E+000	-9.40000E-001	-7.79272E-004	10	..........a	-327.74
	1472	0.491	-9.72609E-001	-4.94982E-004	0.00000E+000	-9.72000E-001	-7.79272E-004	10	..........a	-327.74
	1504	0.501667	-9.96609E-001	-4.41845E-004	0.00000E+000	-9.96000E-001	-5.79272E-004	10	..........a	-327.74
	1536	0.512333	-9.64659E-001	-3.74671E-004	0.00000E+000	-9.64000E-001	-6.79272E-004	10	..........a	-327.74
	1568	0.523	-9.32734E-001	-3.44343E-004	0.00000E+000	-9.32000E-001	-7.79272E-004	10	..........a	-327.74
	1600	0.533667	-9.00709E-001	-3.23539E-004	0.00000E+000	-9.00000E-001	-5.29272E-004	10	..........a	-327.74
	1632	0.544333	-8.68709E-001	-3.06244E-004	0.00000E+000	-8.68000E-001	-7.29272E-004	10	..........a	-327.74
	1664	0.555	-8.36609E-001	-2.89952E-004	0.00000E+000	-8.36000E-001	-8.29272E-004	10	..........a	-327.74
	1696	0.565667	-8.04809E-001	-2.78422E-004	0.00000E+000	-8.04000E-001	-7.29272E-004	10	..........a	-327.74
	1728	0.576333	-7.72709E-001	-2.63383E-004	0.00000E+000	-7.72000E-001	-8.29272E-004	10	..........a	-327.74
	1760	0.587	-7.40759E-001	-2.53858E-004	0.00000E+000	-7.40000E-001	-6.29272E-004	10	..........a	-327.74
	1792	0.597667	-7.08734E-001	-2.39571E-004	0.00000E+000	-7.08000E-001	-8.29272E-004	10	..........a	-327.74
	1824	0.608333	-6.76734E-001	-2.20522E-004	0.00000E+000	-6.76000E-001	-7.79272E-004	10	..........a	-327.74
	1856	0.619	-6.44734E-001	-1.92700E-004	0.00000E+000	-6.44000E-001	-8.29272E-004	10	..........a	-327.74
	1888	0.629667	-6.12834E-001	-1.37307E-004	0.00000E+000	-6.12000E-001	-7.29272E-004	10	..........a	-327.74
	1920	0.640333	-5.80834E-001	-2.47657E-005	0.00000E+000	-5.80000E-001	-7.79272E-004	10	..........a	-327.74
	1952	0.651	-5.48734E-001	2.30144E-004	0.00000E+000	-5.48000E-001	-5.79272E-004	10	..........a	-327.74
	1984	0.661667	-5.16759E-001	7.29436E-004	0.00000E+000	-5.16000E-001	-8.29272E-004	10	..........a	-327.74
	2016	0.672333	-4.84784E-001	1.12020E-003	0.00000E+000	-4.84000E-001	-8.29272E-004	10	..........a	-327.74
	2048	0.683	-4.52934E-001	9.99885E-004	0.00000E+000	-4.52000E-001	-8.29272E-004	10	..........a	-327.74
	2080	0.693667	-4.20909E-001	7.63524E-004	0.00000E+000	-4.20000E-001	-8.29272E-004	10	..........a	-327.74
	2112	0.704333	-3.88834E-001	6.08623E-004	0.00000E+000	-3.88000E-001	-7.79272E-004	10	..........a	-327.74
	2144	0.715	-3.56859E-001	5.11622E-004	0.00000E+000	-3.56000E-001	-7.79272E-004	10	..........a	-327.74
	2176	0.725667	-3.24909E-001	4.47205E-004	0.00000E+000	-3.24000E-001	-8.29272E-004	10	..........a	-327.74
	2208	0.736333	-2.92934E-001	4.01086E-004	0.00000E+000	-2.92000E-001	-7.79272E-004	10	..........a	-327.74
	2240	0.747	-2.60809E-001	3.66998E-004	0.00000E+000	-2.60000E-001	-7.29272E-004	10	..........a	-327.74
	2272	0.757667	-2.28859E-001	3.37171E-004	0.00000E+000	-2.28000E-001	-7.79272E-004	10	..........a	-327.74
	2304	0.768333	-1.96959E-001	3.16868E-004	0.00000E+000	-1.96000E-001	-7.29272E-004	10	..........a	-327.74
	2336	0.779	-1.64859E-001	2.98320E-004	0.00000E+000	-1.64000E-001	-6.29272E-004	10	..........a	-327.74
	2368	0.789667	-1.32934E-001	2.81025E-004	0.00000E+000	-1.32000E-001	-8.29272E-004	10	..........a	-327.74
	2400	0.800333	-1.00959E-001	2.66237E-004	0.00000E+000	-1.00000E-001	-8.29272E-004	10	..........a	-327.74
	2432	0.811	-6.90340E-002	2.53203E-004	0.00000E+000	-6.80000E-002	-7.79272E-004	10	..........a	-327.74
	2464	0.821667	-3.70590E-002	2.40170E-004	0.00000E+000	-3.60000E-002	-8.29272E-004	10	..........a	-327.74
	2496	0.832333	-4.93400E-003	2.32901E-004	0.00000E+000	-4.00001E-003	-8.29272E-004	10	..........a	-327.74
	2528	0.843	2.71410E-002	2.23878E-004	0.00000E+000	2.80000E-002	-8.29272E-004	10	..........a	-327.74
	2560	0.853667	5.89910E-002	2.13852E-004	0.00000E+000	6.00000E-002	-7.79272E-004	10	..........a	-327.74
	2592	0.864333	9.09910E-002	2.06583E-004	0.00000E+000	9.20000E-002	-8.29272E-004	10	..........a	-327.74
	2624	0.875	1.22966E-001	1.98061E-004	0.00000E+000	1.24000E-001	-8.29272E-004	10	..........a	-327.74
	2656	0.885667	1.54966E-001	1.90541E-004	0.00000E+000	1.56000E-001	-7.29272E-004	10	..........a	-327.74
	2688	0.896333	1.86891E-001	1.83022E-004	0.00000E+000	1.88000E-001	-8.29272E-004	10	..........a	-327.74
	2720	0.907	2.18966E-001	1.76756E-004	0.00000E+000	2.20000E-001	-7.29272E-004	10	..........a	-327.74
	2752	0.917667	2.50891E-001	1.68234E-004	0.00000E+000	2.52000E-001	-8.29272E-004	10	..........a	-327.74
	2784	0.928333	2.82866E-001	1.62469E-004	0.00000E+000	2.84000E-001	-8.29272E-004	10	..........a	-327.74
	2816	0.939	3.14916E-001	1.60965E-004	0.00000E+000	3.16000E-001	-7.79272E-004	10	..........a	-327.74
	2848	0.949667	3.46866E-001	1.54699E-004	0.00000E+000	3.48000E-001	-5.79272E-004	10	..........a	-327.74
	2880	0.96033	3.78866E-001	1.51440E-004	0.00000E+000	3.80000E-001	-6.79272E-004	10	..........a	-327.74
	2912	0.971	4.10891E-001	1.46929E-004	0.00000E+000	4.12000E-001	-7.79272E-004	10	..........a	-327.74
	2944	0.98167	4.42891E-001	1.44422E-004	0.00000E+000	4.44000E-001	-8.29272E-004	10	..........a	-327.74
	2976	0.99233	4.74866E-001	1.39158E-004	0.00000E+000	4.76000E-001	-4.29272E-004	10	..........a	-327.74
	3000	1.00033	4.98891E-001	1.39409E-004	0.00000E+000	5.00000E-001	-6.29272E-004	10	..........a	-327.74
CURVE2	TABLE
	Pt	T	Vf	Im	Vu	Sig	Ach	IERange	Over	Temp
	#	s	V vs. Ref.	A	V	V	V	#	bits	deg C
	3001	1.00067	4.98841E-001	1.35649E-004	0.00000E+000	5.00000E-001	-8.29272E-004	10	..........a	-327.74