File: data/02-SI/Figures_S9_S11_RDE/18btmapaq-rde/1mkcl-18btmapaq-nitrogen-100mvpers.DTA
EXPLAIN
TAG	CV
TITLE	LABEL	Cyclic Voltammetry	Test &Identifier
DATE	LABEL	1/31/2023	Date
TIME	LABEL	15:19:32	Time
NOTES	NOTES	1	&Notes...

PSTAT	PSTAT	REF3000-21108	Potentiostat
VINIT	POTEN	5.00000E-001	F	Initial &E (V)
VLIMIT1	POTEN	-1.00000E+000	F	Scan Limit &1 (V)
VLIMIT2	POTEN	5.00000E-001	F	Scan Limit &2 (V)
VFINAL	POTEN	5.00000E-001	F	Final &E (V)
SCANRATE	QUANT	9.99998E+001	&Scan Rate (mV/s)
STEPSIZE	QUANT	1.00000E+000	St&ep Size (mV)
CYCLES	IQUANT	1	C&ycles (#)
IMODE	SELECTOR	1	I/E Range &Mode
IRANGE	QUANT	1.00000E+001	&Max Current (mA)
AREA	QUANT	1.00000E+000	Electrode &Area (cm^2)
ELECTRODETYPE	SELECTOR	0	Electrode Type
STRIPPING	TOGGLE	F	Used for Stripping
POLARITY	TOGGLE	F	Signal Polarity
CONDIT	TWOPARAM	F	1.50000E+001	0.00000E+000	Conditionin&g	Time(s)	E(V)
DELAY	TWOPARAM	F	5.00000E+000	0.00000E+000	Init. De&lay	Time(s)	Stab.(mV/s)
EQDELAY	QUANT	0.00000E+000	Equil. &Time (s)
IRCOMP	SELECTOR	0	IRCom&p
PFCOR	QUANT	5.00000E+001	PF Corr. (ohm)
SAMPLINGMODE	SELECTOR	1	Sampling &Mode
EOC	QUANT	0	Open Circuit (V)
PSTATMODEL	IQUANT	5	Pstat Model
PSTATSECTION	LABEL	REF3000-21108	Pstat Section
PSTATSERIALNO	LABEL	21108	Pstat Serial Number
CTRLMODE	IQUANT	1	Control Mode
ELECTROMETER	IQUANT	0	RE=0 or CS=1
IESTAB	IQUANT	2	I/E Stability
CASPEED	IQUANT	4	Control Amp Speed
CONVENTION	IQUANT	1	Current Convention
ICHRANGE	IQUANT	2	Ich Range
ICHRANGEMODE	TOGGLE	F	Ich Auto Range
ICHOFFSETENABLE	TOGGLE	F	Ich Offset Enable
ICHOFFSET	QUANT	0	Ich Offset (V)
ICHFILTER	IQUANT	2	Ich Filter
VCHRANGE	IQUANT	2	Vch Range
VCHRANGEMODE	TOGGLE	F	Vch Auto Range
VCHOFFSETENABLE	TOGGLE	F	Vch Offset Enable
VCHOFFSET	QUANT	0	Vch Offset (V)
VCHFILTER	IQUANT	2	Vch Filter
ACHRANGE	IQUANT	2	Ach Range
ACHOFFSETENABLE	TOGGLE	F	Ach Offset Enable
ACHOFFSET	QUANT	0	Ach Offset (V)
ACHFILTER	IQUANT	0	Ach Filter
IERANGELOWERLIMIT	IQUANT	2	I/E Range Lower Limit
IERANGEMODE	TOGGLE	F	I/E AutoRange
IERANGE	IQUANT	10	I/E Range
POSFEEDENABLE	TOGGLE	F	Positive Feedback IR Comp
POSFEEDRESISTANCE	QUANT	0	Positive Feedback Resistance (ohm)
ACHSELECT	IQUANT	0	Ach Select
SENSECABLEID	IQUANT	14	Sense Cable ID
PWRCABLEID	IQUANT	7	Power Cable ID
DCCALDATE	LABEL	11/9/2022	DC Calibration Date
ACCALDATE	LABEL	11/9/2022	AC Calibration Date
THERMOSELECT	IQUANT	1	Thermo Select
FRAMEWORKVERSION	LABEL	7.8.2	Framework Version
INSTRUMENTVERSION	LABEL	4.40	Instrument Version
COMPLIANCEVOLTAGE	IQUANT	0	Compliance Voltage
CURVE1	TABLE
	Pt	T	Vf	Im	Vu	Sig	Ach	IERange	Over	Temp
	#	s	V vs. Ref.	A	V	V	V	#	bits	deg C
	0	0.01	4.98806E-001	3.31288E-006	0.00000E+000	5.00000E-001	-7.67605E-004	10	..........a	-327.74
	31	0.32	4.67831E-001	-2.37974E-007	0.00000E+000	4.69000E-001	-7.65939E-004	10	..........a	-327.74
	62	0.63	4.36799E-001	-5.63817E-007	0.00000E+000	4.38000E-001	-7.74272E-004	10	..........a	-327.74
	93	0.94	4.05879E-001	-7.81046E-007	0.00000E+000	4.07000E-001	-7.74272E-004	10	..........a	-327.74
	124	1.25	3.74823E-001	-1.14866E-006	0.00000E+000	3.76000E-001	-7.47606E-004	10	..........a	-327.74
	155	1.56	3.43844E-001	-1.57477E-006	0.00000E+000	3.45000E-001	-7.37606E-004	10	..........a	-327.74
	186	1.87	3.12917E-001	-1.52464E-006	0.00000E+000	3.14000E-001	-7.29272E-004	10	..........a	-327.74
	217	2.18	2.81885E-001	-1.70845E-006	0.00000E+000	2.83000E-001	-7.65939E-004	10	..........a	-327.74
	248	2.49	2.50889E-001	-2.10948E-006	0.00000E+000	2.52000E-001	-7.32606E-004	10	..........a	-327.74
	279	2.8	2.19845E-001	-1.94238E-006	0.00000E+000	2.21000E-001	-7.09272E-004	10	..........a	-327.74
	310	3.11	1.88934E-001	-2.21810E-006	0.00000E+000	1.90000E-001	-7.37606E-004	10	..........a	-327.74
	341	3.42	1.57974E-001	-2.37684E-006	0.00000E+000	1.59000E-001	-7.34272E-004	10	..........a	-327.74
	372	3.73	1.26936E-001	-2.23481E-006	0.00000E+000	1.28000E-001	-7.34272E-004	10	..........a	-327.74
	403	4.04	9.59452E-002	-2.17632E-006	0.00000E+000	9.70000E-002	-7.39272E-004	10	..........a	-327.74
	434	4.35	6.50852E-002	-1.85883E-006	0.00000E+000	6.60000E-002	-7.20939E-004	10	..........a	-327.74
	465	4.66	3.39869E-002	-1.89225E-006	0.00000E+000	3.50000E-002	-7.55939E-004	10	..........a	-327.74
	496	4.97	2.97023E-003	-1.98416E-006	0.00000E+000	4.00001E-003	-7.32606E-004	10	..........a	-327.74
	527	5.28	-2.79406E-002	-2.19303E-006	0.00000E+000	-2.70000E-002	-7.40939E-004	10	..........a	-327.74
	558	5.59	-5.89923E-002	-2.22645E-006	0.00000E+000	-5.80000E-002	-7.40939E-004	10	..........a	-327.74
	589	5.9	-8.99514E-002	-2.02593E-006	0.00000E+000	-8.90000E-002	-7.29272E-004	10	..........a	-327.74
	620	6.21	-1.21015E-001	-2.32671E-006	0.00000E+000	-1.20000E-001	-7.20939E-004	10	..........a	-327.74
	651	6.52	-1.51963E-001	-2.60242E-006	0.00000E+000	-1.51000E-001	-7.05939E-004	10	..........a	-327.74
	682	6.83	-1.82902E-001	-3.23740E-006	0.00000E+000	-1.82000E-001	-6.99272E-004	10	..........a	-327.74
	713	7.14	-2.13928E-001	-4.33190E-006	0.00000E+000	-2.13000E-001	-6.94272E-004	10	..........a	-327.74
	744	7.45	-2.44875E-001	-5.71047E-006	0.00000E+000	-2.44000E-001	-6.84272E-004	10	..........a	-327.74
	775	7.76	-2.75865E-001	-8.57621E-006	0.00000E+000	-2.75000E-001	-7.14272E-004	10	..........a	-327.74
	806	8.07	-3.06926E-001	-1.12999E-005	0.00000E+000	-3.06000E-001	-7.20939E-004	10	..........a	-327.74
	837	8.38	-3.37911E-001	-1.29709E-005	0.00000E+000	-3.37000E-001	-7.44272E-004	10	..........a	-327.74
	868	8.69	-3.68755E-001	-1.41824E-005	0.00000E+000	-3.68000E-001	-7.09272E-004	10	..........a	-327.74
	899	9	-3.99826E-001	-1.46920E-005	0.00000E+000	-3.99000E-001	-7.35939E-004	10	..........a	-327.74
	930	9.31	-4.30851E-001	-1.58784E-005	0.00000E+000	-4.30000E-001	-7.25939E-004	10	..........a	-327.74
	961	9.62	-4.61793E-001	-3.03242E-005	0.00000E+000	-4.61000E-001	-7.57606E-004	10	..........a	-327.74
	992	9.93	-4.92843E-001	-8.44057E-005	0.00000E+000	-4.92000E-001	-6.92606E-004	10	..........a	-327.74
	1023	10.24	-5.23712E-001	-2.06964E-004	0.00000E+000	-5.23000E-001	-7.35939E-004	10	..........a	-327.74
	1054	10.55	-5.54788E-001	-2.90572E-004	0.00000E+000	-5.54000E-001	-7.12606E-004	10	..........a	-327.74
	1085	10.86	-5.85831E-001	-2.29498E-004	0.00000E+000	-5.85000E-001	-7.02605E-004	10	..........a	-327.74
	1116	11.17	-6.16718E-001	-1.83387E-004	0.00000E+000	-6.16000E-001	-7.15939E-004	10	..........a	-327.74
	1147	11.48	-6.47717E-001	-1.58564E-004	0.00000E+000	-6.47000E-001	-7.15939E-004	10	..........a	-327.74
	1178	11.79	-6.78731E-001	-1.42372E-004	0.00000E+000	-6.78000E-001	-7.62605E-004	10	..........a	-327.74
	1209	12.1	-7.09756E-001	-1.32438E-004	0.00000E+000	-7.09000E-001	-7.24272E-004	10	..........a	-327.74
	1240	12.41	-7.40736E-001	-1.24777E-004	0.00000E+000	-7.40000E-001	-7.52606E-004	10	..........a	-327.74
	1271	12.72	-7.71675E-001	-1.17416E-004	0.00000E+000	-7.71000E-001	-7.17605E-004	10	..........a	-327.74
	1302	13.03	-8.02661E-001	-1.11618E-004	0.00000E+000	-8.02000E-001	-7.32606E-004	10	..........a	-327.74
	1333	13.34	-8.33616E-001	-1.07257E-004	0.00000E+000	-8.33000E-001	-7.45939E-004	10	..........a	-327.74
	1364	13.65	-8.64601E-001	-1.04132E-004	0.00000E+000	-8.64000E-001	-7.32606E-004	10	..........a	-327.74
	1395	13.96	-8.95612E-001	-1.01734E-004	0.00000E+000	-8.95000E-001	-6.82606E-004	10	..........a	-327.74
	1426	14.27	-9.26649E-001	-9.91272E-005	0.00000E+000	-9.26000E-001	-6.92606E-004	10	..........a	-327.74
	1457	14.58	-9.57532E-001	-9.67544E-005	0.00000E+000	-9.57000E-001	-7.70939E-004	10	..........a	-327.74
	1488	14.89	-9.88570E-001	-9.59857E-005	0.00000E+000	-9.88000E-001	-7.14272E-004	10	..........a	-327.74
	1519	15.2	-9.81491E-001	-9.18333E-005	0.00000E+000	-9.81000E-001	-7.44272E-004	10	..........a	-327.74
	1550	15.51	-9.50597E-001	-8.94187E-005	0.00000E+000	-9.50000E-001	-7.14272E-004	10	..........a	-327.74
	1581	15.82	-9.19606E-001	-8.74135E-005	0.00000E+000	-9.19000E-001	-6.94272E-004	10	..........a	-327.74
	1612	16.13	-8.88616E-001	-8.57592E-005	0.00000E+000	-8.88000E-001	-6.97606E-004	10	..........a	-327.74
	1643	16.44	-8.57607E-001	-8.49739E-005	0.00000E+000	-8.57000E-001	-6.90939E-004	10	..........a	-327.74
	1674	16.75	-8.26688E-001	-8.42219E-005	0.00000E+000	-8.26000E-001	-6.72606E-004	10	..........a	-327.74
	1705	17.06	-7.95653E-001	-8.36538E-005	0.00000E+000	-7.95000E-001	-6.80939E-004	10	..........a	-327.74
	1736	17.37	-7.64719E-001	-8.31943E-005	0.00000E+000	-7.64000E-001	-7.15939E-004	10	..........a	-327.74
	1767	17.68	-7.33706E-001	-8.32695E-005	0.00000E+000	-7.33000E-001	-7.00939E-004	10	..........a	-327.74
	1798	17.99	-7.02746E-001	-8.34366E-005	0.00000E+000	-7.02000E-001	-7.07606E-004	10	..........a	-327.74
	1829	18.3	-6.71761E-001	-8.37123E-005	0.00000E+000	-6.71000E-001	-6.92606E-004	10	..........a	-327.74
	1860	18.61	-6.40699E-001	-8.32026E-005	0.00000E+000	-6.40000E-001	-6.97606E-004	10	..........a	-327.74
	1891	18.92	-6.09759E-001	-8.02450E-005	0.00000E+000	-6.09000E-001	-7.44272E-004	10	..........a	-327.74
	1922	19.23	-5.78778E-001	-6.95089E-005	0.00000E+000	-5.78000E-001	-6.69272E-004	10	..........a	-327.74
	1953	19.54	-5.47730E-001	-2.17520E-005	0.00000E+000	-5.47000E-001	-6.99272E-004	10	..........a	-327.74
	1984	19.85	-5.16813E-001	9.89353E-005	0.00000E+000	-5.16000E-001	-7.67605E-004	10	..........a	-327.74
	2015	20.16	-4.85883E-001	1.31611E-004	0.00000E+000	-4.85000E-001	-7.77606E-004	10	..........a	-327.74
	2046	20.47	-4.54826E-001	1.01392E-004	0.00000E+000	-4.54000E-001	-7.72606E-004	10	..........a	-327.74
	2077	20.78	-4.23853E-001	7.09546E-005	0.00000E+000	-4.23000E-001	-7.20939E-004	10	..........a	-327.74
	2108	21.09	-3.92881E-001	5.10363E-005	0.00000E+000	-3.92000E-001	-7.97606E-004	10	..........a	-327.74
	2139	21.4	-3.61894E-001	3.78522E-005	0.00000E+000	-3.61000E-001	-7.45939E-004	10	..........a	-327.74
	2170	21.71	-3.30891E-001	2.89793E-005	0.00000E+000	-3.30000E-001	-6.82606E-004	10	..........a	-327.74
	2201	22.02	-2.99886E-001	2.26045E-005	0.00000E+000	-2.99000E-001	-7.39272E-004	10	..........a	-327.74
	2232	22.33	-2.68901E-001	1.87612E-005	0.00000E+000	-2.68000E-001	-7.64272E-004	10	..........a	-327.74
	2263	22.64	-2.37924E-001	1.51602E-005	0.00000E+000	-2.37000E-001	-7.57606E-004	10	..........a	-327.74
	2294	22.95	-2.06869E-001	1.25702E-005	0.00000E+000	-2.06000E-001	-7.19272E-004	10	..........a	-327.74
	2325	23.26	-1.75966E-001	1.10161E-005	0.00000E+000	-1.75000E-001	-7.37606E-004	10	..........a	-327.74
	2356	23.57	-1.44947E-001	9.80467E-006	0.00000E+000	-1.44000E-001	-6.82606E-004	10	..........a	-327.74
	2387	23.88	-1.13942E-001	8.59321E-006	0.00000E+000	-1.13000E-001	-7.55939E-004	10	..........a	-327.74
	2418	24.19	-8.30081E-002	8.66840E-006	0.00000E+000	-8.20000E-002	-7.15939E-004	10	..........a	-327.74
	2449	24.5	-5.19514E-002	9.37022E-006	0.00000E+000	-5.10000E-002	-6.85939E-004	10	..........a	-327.74
	2480	24.81	-2.10048E-002	1.01556E-005	0.00000E+000	-2.00000E-002	-6.92606E-004	10	..........a	-327.74
	2511	25.12	9.99273E-003	9.82974E-006	0.00000E+000	1.10000E-002	-7.14272E-004	10	..........a	-327.74
	2542	25.43	4.10777E-002	7.95823E-006	0.00000E+000	4.20000E-002	-7.24272E-004	10	..........a	-327.74
	2573	25.74	7.19477E-002	6.03659E-006	0.00000E+000	7.30000E-002	-7.37606E-004	10	..........a	-327.74
	2604	26.05	1.02893E-001	4.83348E-006	0.00000E+000	1.04000E-001	-7.80939E-004	10	..........a	-327.74
	2635	26.36	1.33942E-001	3.83089E-006	0.00000E+000	1.35000E-001	-7.79272E-004	10	..........a	-327.74
	2666	26.67	1.64940E-001	3.36301E-006	0.00000E+000	1.66000E-001	-7.49272E-004	10	..........a	-327.74
	2697	26.98	1.95908E-001	3.13743E-006	0.00000E+000	1.97000E-001	-7.90939E-004	10	..........a	-327.74
	2728	27.29	2.26876E-001	2.94526E-006	0.00000E+000	2.28000E-001	-7.32606E-004	10	..........a	-327.74
	2759	27.6	2.57861E-001	2.71968E-006	0.00000E+000	2.59000E-001	-7.75939E-004	10	..........a	-327.74
	2790	27.91	2.88915E-001	2.37712E-006	0.00000E+000	2.90000E-001	-7.57606E-004	10	..........a	-327.74
	2821	28.22	3.19853E-001	2.65284E-006	0.00000E+000	3.21000E-001	-7.55939E-004	10	..........a	-327.74
	2852	28.53	3.50857E-001	2.68626E-006	0.00000E+000	3.52000E-001	-7.80939E-004	10	..........a	-327.74
	2883	28.84	3.81869E-001	2.97868E-006	0.00000E+000	3.83000E-001	-7.49272E-004	10	..........a	-327.74
	2914	29.15	4.12778E-001	2.74474E-006	0.00000E+000	4.14000E-001	-7.79272E-004	10	..........a	-327.74
	2945	29.46	4.43763E-001	2.93691E-006	0.00000E+000	4.45000E-001	-7.67605E-004	10	..........a	-327.74
	2976	29.77	4.74799E-001	2.52751E-006	0.00000E+000	4.76000E-001	-7.35939E-004	10	..........a	-327.74
	3000	30.01	4.98813E-001	2.63613E-006	0.00000E+000	5.00000E-001	-7.89272E-004	10	..........a	-327.74
CURVE2	TABLE
	Pt	T	Vf	Im	Vu	Sig	Ach	IERange	Over	Temp
	#	s	V vs. Ref.	A	V	V	V	#	bits	deg C
	3001	30.02	4.98821E-001	2.28522E-006	0.00000E+000	5.00000E-001	-7.57606E-004	10	..........a	-327.74