File: data/02-SI/Figures_S9_S11_RDE/18btmapaq-rde/1mkcl-5mmolar18btmapaq-nitrogen-rde-400mvpers-50mvpers.DTA
EXPLAIN
TAG	LSV
TITLE	LABEL	Linear Sweep Voltammetry	Test &Identifier
DATE	LABEL	1/31/2023	Date
TIME	LABEL	15:26:11	Time
NOTES	NOTES	1	&Notes...

PSTAT	PSTAT	REF3000-21108	Potentiostat
VINIT	POTEN	5.00000E-001	F	&Initial E (V)
VFINAL	POTEN	-1.00000E+000	F	&Final E (V)
SCANRATE	QUANT	4.99999E+001	&Scan Rate (mV/s)
STEPSIZE	QUANT	1.00000E-001	St&ep Size (mV)
IMODE	SELECTOR	0	I/E Range &Mode
IRANGE	QUANT	1.00000E+002	&Max Current (mA)
AREA	QUANT	1.00000E+000	Electrode &Area (cm^2)
ELECTRODETYPE	SELECTOR	0	Electrode Type
STRIPPING	TOGGLE	F	Used for Stripping
POLARITY	TOGGLE	F	Signal Polarity
CONDIT	TWOPARAM	F	1.50000E+001	0.00000E+000	Conditionin&g	Time(s)	E(V)
DELAY	TWOPARAM	F	3.00000E+001	0.00000E+000	Init. De&lay	Time(s)	Stab.(mV/s)
EQDELAY	QUANT	0.00000E+000	Equil. &Time (s)
IRCOMP	SELECTOR	0	IRCom&p
PFCOR	QUANT	5.00000E+001	PF Corr. (ohm)
SAMPLINGMODE	SELECTOR	1	Sampling &Mode
EOC	QUANT	0	Open Circuit (V)
PSTATMODEL	IQUANT	5	Pstat Model
PSTATSECTION	LABEL	REF3000-21108	Pstat Section
PSTATSERIALNO	LABEL	21108	Pstat Serial Number
CTRLMODE	IQUANT	1	Control Mode
ELECTROMETER	IQUANT	0	RE=0 or CS=1
IESTAB	IQUANT	2	I/E Stability
CASPEED	IQUANT	4	Control Amp Speed
CONVENTION	IQUANT	1	Current Convention
ICHRANGE	IQUANT	2	Ich Range
ICHRANGEMODE	TOGGLE	F	Ich Auto Range
ICHOFFSETENABLE	TOGGLE	F	Ich Offset Enable
ICHOFFSET	QUANT	0	Ich Offset (V)
ICHFILTER	IQUANT	2	Ich Filter
VCHRANGE	IQUANT	2	Vch Range
VCHRANGEMODE	TOGGLE	T	Vch Auto Range
VCHOFFSETENABLE	TOGGLE	F	Vch Offset Enable
VCHOFFSET	QUANT	0	Vch Offset (V)
VCHFILTER	IQUANT	2	Vch Filter
ACHRANGE	IQUANT	2	Ach Range
ACHOFFSETENABLE	TOGGLE	F	Ach Offset Enable
ACHOFFSET	QUANT	0	Ach Offset (V)
ACHFILTER	IQUANT	0	Ach Filter
IERANGELOWERLIMIT	IQUANT	2	I/E Range Lower Limit
IERANGEMODE	TOGGLE	T	I/E AutoRange
IERANGE	IQUANT	11	I/E Range
POSFEEDENABLE	TOGGLE	F	Positive Feedback IR Comp
POSFEEDRESISTANCE	QUANT	0	Positive Feedback Resistance (ohm)
ACHSELECT	IQUANT	0	Ach Select
SENSECABLEID	IQUANT	14	Sense Cable ID
PWRCABLEID	IQUANT	7	Power Cable ID
DCCALDATE	LABEL	11/9/2022	DC Calibration Date
ACCALDATE	LABEL	11/9/2022	AC Calibration Date
THERMOSELECT	IQUANT	1	Thermo Select
FRAMEWORKVERSION	LABEL	7.8.2	Framework Version
INSTRUMENTVERSION	LABEL	4.40	Instrument Version
COMPLIANCEVOLTAGE	IQUANT	0	Compliance Voltage
CURVE	TABLE	15001
	Pt	T	Vf	Im	Vu	Sig	Ach	IERange	Over	Cycle	Temp
	#	s	V vs. Ref.	A	V	V	V	#	bits	#	deg C
	0	0.002	4.99221E-001	8.39773E-007	0.00000E+000	5.00000E-001	-1.37927E-003	11	..........a	0	-327.74
	158	0.318	4.82464E-001	3.95123E-006	0.00000E+000	4.84200E-001	-1.96261E-003	8	..........a	0	-327.74
	316	0.634	4.66656E-001	2.60300E-006	0.00000E+000	4.68400E-001	-1.75427E-003	8	..........a	0	-327.74
	474	0.95	4.50827E-001	1.95847E-006	0.00000E+000	4.52600E-001	-1.98761E-003	8	..........a	0	-327.74
	632	1.266	4.35047E-001	1.90264E-006	0.00000E+000	4.36800E-001	-1.82094E-003	8	..........a	0	-327.74
	790	1.582	4.19285E-001	1.34060E-006	0.00000E+000	4.21000E-001	-1.87094E-003	8	..........a	0	-327.74
	948	1.898	4.03418E-001	1.28186E-006	0.00000E+000	4.05200E-001	-1.84594E-003	8	..........a	0	-327.74
	1106	2.214	3.87560E-001	8.35643E-007	0.00000E+000	3.89400E-001	-1.86261E-003	8	..........a	0	-327.74
	1264	2.53	3.71927E-001	5.57332E-007	0.00000E+000	3.73600E-001	-1.79594E-003	8	..........a	0	-327.74
	1422	2.846	3.56035E-001	4.11927E-007	0.00000E+000	3.57800E-001	-1.86261E-003	8	..........a	0	-327.74
	1580	3.162	3.40277E-001	2.66522E-007	0.00000E+000	3.42000E-001	-1.90427E-003	8	..........a	0	-327.74
	1738	3.478	3.24452E-001	2.51940E-007	0.00000E+000	3.26200E-001	-2.02094E-003	8	..........a	0	-327.74
	1896	3.794	3.08639E-001	2.34024E-007	0.00000E+000	3.10400E-001	-1.92094E-003	8	..........a	0	-327.74
	2054	4.11	2.92864E-001	-1.76220E-008	0.00000E+000	2.94600E-001	-1.95427E-003	8	..........a	0	-327.74
	2212	4.426	2.77093E-001	2.18609E-007	0.00000E+000	2.78800E-001	-1.89594E-003	8	..........a	0	-327.74
	2370	4.742	2.61306E-001	-2.17883E-008	0.00000E+000	2.63000E-001	-1.62094E-003	8	..........a	0	-327.74
	2528	5.058	2.45560E-001	1.22367E-007	0.00000E+000	2.47200E-001	-1.42927E-003	8	..........a	0	-327.74
	2686	5.374	2.30118E-001	1.81529E-007	0.00000E+000	2.31400E-001	-1.66261E-003	8	..........a	0	-327.74
	2844	5.69	2.14318E-001	4.73728E-008	0.00000E+000	2.15600E-001	-1.52927E-003	8	..........a	0	-327.74
	3002	6.006	1.98503E-001	8.98694E-008	0.00000E+000	1.99800E-001	-1.67094E-003	8	..........a	0	-327.74
	3160	6.322	1.82749E-001	6.48714E-008	0.00000E+000	1.84000E-001	-1.85427E-003	8	..........a	0	-327.74
	3318	6.638	1.66938E-001	6.32048E-008	0.00000E+000	1.68200E-001	-1.98761E-003	8	..........a	0	-327.74
	3476	6.954	1.51152E-001	-6.63681E-008	0.00000E+000	1.52400E-001	-1.92927E-003	8	..........a	0	-327.74
	3634	7.27	1.35350E-001	-4.13701E-008	0.00000E+000	1.36600E-001	-2.17927E-003	8	..........a	0	-327.74
	3792	7.586	1.19571E-001	9.23692E-008	0.00000E+000	1.20800E-001	-1.95427E-003	8	..........a	0	-327.74
	3950	7.902	1.03766E-001	6.48714E-008	0.00000E+000	1.05000E-001	-1.83761E-003	8	..........a	0	-327.74
	4108	8.218	8.79793E-002	-9.80322E-008	0.00000E+000	8.92000E-002	-1.90427E-003	8	..........a	0	-327.74
	4266	8.534	7.21968E-002	-5.40039E-010	0.00000E+000	7.34000E-002	-1.68761E-003	8	..........a	0	-327.74
	4424	8.85	5.64047E-002	-1.03865E-007	0.00000E+000	5.76000E-002	-1.52927E-003	8	..........a	0	-327.74
	4582	9.166	4.06151E-002	-3.01210E-008	0.00000E+000	4.18000E-002	-1.60427E-003	8	..........a	0	-327.74
	4740	9.482	2.48147E-002	6.95936E-009	0.00000E+000	2.60000E-002	-1.55427E-003	8	..........a	0	-327.74
	4898	9.798	9.05447E-003	-1.67610E-007	0.00000E+000	1.02000E-002	-1.63761E-003	8	..........a	0	-327.74
	5056	10.114	-6.73190E-003	-8.01170E-008	0.00000E+000	-5.60001E-003	-1.66261E-003	8	..........a	0	-327.74
	5214	10.43	-2.25154E-002	-7.30342E-008	0.00000E+000	-2.14000E-002	-1.71261E-003	8	..........a	0	-327.74
	5372	10.746	-3.83536E-002	-9.63657E-008	0.00000E+000	-3.72000E-002	-1.64594E-003	8	..........a	0	-327.74
	5530	11.062	-5.41569E-002	-1.95941E-007	0.00000E+000	-5.30000E-002	-1.92094E-003	8	..........a	0	-327.74
	5688	11.378	-6.99578E-002	-2.04690E-007	0.00000E+000	-6.88000E-002	-1.64594E-003	8	..........a	0	-327.74
	5846	11.694	-8.57307E-002	-1.22614E-007	0.00000E+000	-8.46000E-002	-1.81261E-003	8	..........a	0	-327.74
	6004	12.01	-1.01519E-001	-1.57194E-007	0.00000E+000	-1.00400E-001	-1.41261E-003	8	..........a	0	-327.74
	6162	12.326	-1.17311E-001	-1.90941E-007	0.00000E+000	-1.16200E-001	-1.67094E-003	8	..........a	0	-327.74
	6320	12.642	-1.33101E-001	-2.50937E-007	0.00000E+000	-1.32000E-001	-1.62927E-003	8	..........a	0	-327.74
	6478	12.958	-1.48912E-001	-2.70518E-007	0.00000E+000	-1.47800E-001	-1.62094E-003	8	..........a	0	-327.74
	6636	13.274	-1.64699E-001	-3.80093E-007	0.00000E+000	-1.63600E-001	-1.78761E-003	8	..........a	0	-327.74
	6794	13.59	-1.80488E-001	-3.58011E-007	0.00000E+000	-1.79400E-001	-1.85427E-003	8	..........a	0	-327.74
	6952	13.906	-1.96291E-001	-6.27990E-007	0.00000E+000	-1.95200E-001	-1.96261E-003	8	..........a	0	-327.74
	7110	14.222	-2.12084E-001	-6.95068E-007	0.00000E+000	-2.11000E-001	-1.82094E-003	8	..........a	0	-327.74
	7268	14.538	-2.27866E-001	-8.09642E-007	0.00000E+000	-2.26800E-001	-1.97094E-003	8	..........a	0	-327.74
	7426	14.854	-2.43660E-001	-9.29632E-007	0.00000E+000	-2.42600E-001	-1.60427E-003	8	..........a	0	-327.74
	7584	15.17	-2.59469E-001	-1.35210E-006	0.00000E+000	-2.58400E-001	-1.50427E-003	8	..........a	0	-327.74
	7742	15.486	-2.75615E-001	-1.52458E-006	0.00000E+000	-2.74200E-001	-1.49594E-003	8	..........a	0	-327.74
	7900	15.802	-2.91498E-001	-1.74707E-006	0.00000E+000	-2.90000E-001	-2.02927E-003	8	..........a	0	-327.74
	8058	16.118	-3.07265E-001	-2.18578E-006	0.00000E+000	-3.05800E-001	-1.78761E-003	8	..........a	0	-327.74
	8216	16.434	-3.23069E-001	-2.65324E-006	0.00000E+000	-3.21600E-001	-1.79594E-003	8	..........a	0	-327.74
	8374	16.75	-3.38840E-001	-2.97572E-006	0.00000E+000	-3.37400E-001	-1.76261E-003	8	..........a	0	-327.74
	8532	17.066	-3.54623E-001	-3.33569E-006	0.00000E+000	-3.53200E-001	-1.87094E-003	8	..........a	0	-327.74
	8690	17.382	-3.70440E-001	-3.77607E-006	0.00000E+000	-3.69000E-001	-1.78761E-003	8	..........a	0	-327.74
	8848	17.698	-3.86198E-001	-4.42060E-006	0.00000E+000	-3.84800E-001	-1.92094E-003	8	..........a	0	-327.74
	9006	18.014	-4.02044E-001	-5.53634E-006	0.00000E+000	-4.00600E-001	-1.87094E-003	8	..........a	0	-327.74
	9164	18.33	-4.17857E-001	-7.69201E-006	0.00000E+000	-4.16400E-001	-1.72927E-003	8	..........a	0	-327.74
	9322	18.646	-4.33669E-001	-1.19537E-005	0.00000E+000	-4.32200E-001	-1.62927E-003	8	..........a	0	-327.74
	9480	18.962	-4.49394E-001	-1.85703E-005	0.00000E+000	-4.48000E-001	-1.73761E-003	8	..........a	0	-327.74
	9638	19.278	-4.65169E-001	-3.01477E-005	0.00000E+000	-4.63800E-001	-1.71261E-003	8	..........a	0	-327.74
	9796	19.594	-4.80957E-001	-5.09835E-005	0.00000E+000	-4.79600E-001	-1.76261E-003	8	..........a	0	-327.74
	9954	19.91	-4.96607E-001	-8.52287E-005	0.00000E+000	-4.95400E-001	-1.51261E-003	8	..........a	0	-327.74
	10112	20.226	-5.12403E-001	-1.37201E-004	0.00000E+000	-5.11200E-001	-1.57927E-003	8	..........a	0	-327.74
	10270	20.542	-5.28165E-001	-2.01314E-004	0.00000E+000	-5.27000E-001	-1.97094E-003	8	..........a	0	-327.74
	10428	20.858	-5.43886E-001	-2.53614E-004	0.00000E+000	-5.42800E-001	-1.75427E-003	8	..........a	0	-327.74
	10586	21.174	-5.59862E-001	-2.66125E-004	0.00000E+000	-5.58600E-001	-1.56261E-003	9	..........a	0	-327.74
	10744	21.49	-5.75604E-001	-2.57651E-004	0.00000E+000	-5.74400E-001	-1.44594E-003	9	..........a	0	-327.74
	10902	21.806	-5.91442E-001	-2.51788E-004	0.00000E+000	-5.90200E-001	-1.49594E-003	9	..........a	0	-327.74
	11060	22.122	-6.07262E-001	-2.50242E-004	0.00000E+000	-6.06000E-001	-1.67094E-003	9	..........a	0	-327.74
	11218	22.438	-6.23042E-001	-2.50020E-004	0.00000E+000	-6.21800E-001	-1.72094E-003	9	..........a	0	-327.74
	11376	22.754	-6.38846E-001	-2.49256E-004	0.00000E+000	-6.37600E-001	-1.71261E-003	9	..........a	0	-327.74
	11534	23.07	-6.54579E-001	-2.48913E-004	0.00000E+000	-6.53400E-001	-1.70427E-003	9	..........a	0	-327.74
	11692	23.386	-6.70442E-001	-2.48992E-004	0.00000E+000	-6.69200E-001	-1.87927E-003	9	..........a	0	-327.74
	11850	23.702	-6.86287E-001	-2.49243E-004	0.00000E+000	-6.85000E-001	-2.02927E-003	9	..........a	0	-327.74
	12008	24.018	-7.02087E-001	-2.48161E-004	0.00000E+000	-7.00800E-001	-2.02927E-003	9	..........a	0	-327.74
	12166	24.334	-7.17921E-001	-2.48169E-004	0.00000E+000	-7.16600E-001	-2.05427E-003	9	..........a	0	-327.74
	12324	24.65	-7.33654E-001	-2.47576E-004	0.00000E+000	-7.32400E-001	-2.03761E-003	9	..........a	0	-327.74
	12482	24.966	-7.49321E-001	-2.47133E-004	0.00000E+000	-7.48200E-001	-1.59594E-003	9	..........a	0	-327.74
	12640	25.282	-7.65179E-001	-2.48090E-004	0.00000E+000	-7.64000E-001	-1.61261E-003	9	..........a	0	-327.74
	12798	25.598	-7.81017E-001	-2.48144E-004	0.00000E+000	-7.79800E-001	-1.94594E-003	9	..........a	0	-327.74
	12956	25.914	-7.96812E-001	-2.47818E-004	0.00000E+000	-7.95600E-001	-1.64594E-003	9	..........a	0	-327.74
	13114	26.23	-8.12612E-001	-2.47797E-004	0.00000E+000	-8.11400E-001	-1.65427E-003	9	..........a	0	-327.74
	13272	26.546	-8.28404E-001	-2.48019E-004	0.00000E+000	-8.27200E-001	-1.80427E-003	9	..........a	0	-327.74
	13430	26.862	-8.44162E-001	-2.47196E-004	0.00000E+000	-8.43000E-001	-1.85427E-003	9	..........a	0	-327.74
	13588	27.178	-8.59908E-001	-2.47413E-004	0.00000E+000	-8.58800E-001	-1.65427E-003	9	..........a	0	-327.74
	13746	27.494	-8.75675E-001	-2.47726E-004	0.00000E+000	-8.74600E-001	-1.86261E-003	9	..........a	0	-327.74
	13904	27.81	-8.91496E-001	-2.47935E-004	0.00000E+000	-8.90400E-001	-1.69594E-003	9	..........a	0	-327.74
	14062	28.126	-9.07329E-001	-2.48303E-004	0.00000E+000	-9.06200E-001	-1.46261E-003	9	..........a	0	-327.74
	14220	28.442	-9.23100E-001	-2.47822E-004	0.00000E+000	-9.22000E-001	-1.52927E-003	9	..........a	0	-327.74
	14378	28.758	-9.38887E-001	-2.47304E-004	0.00000E+000	-9.37800E-001	-1.64594E-003	9	..........a	0	-327.74
	14536	29.074	-9.54646E-001	-2.47053E-004	0.00000E+000	-9.53600E-001	-1.73761E-003	9	..........a	0	-327.74
	14694	29.39	-9.70558E-001	-2.47033E-004	0.00000E+000	-9.69400E-001	-1.85427E-003	9	..........a	0	-327.74
	14852	29.706	-9.86275E-001	-2.48474E-004	0.00000E+000	-9.85200E-001	-1.92094E-003	9	..........a	0	-327.74
	15000	30.002	-1.00114E+000	-2.48274E-004	0.00000E+000	-1.00000E+000	-2.21261E-003	9	..........a	0	-327.74