File: data/02-SI/Figures_S9_S11_RDE/18btmapaq-rde/1mkcl-18btmapaq-nitrogen-400mvpers.DTA
EXPLAIN
TAG	CV
TITLE	LABEL	Cyclic Voltammetry	Test &Identifier
DATE	LABEL	1/31/2023	Date
TIME	LABEL	15:21:10	Time
NOTES	NOTES	1	&Notes...

PSTAT	PSTAT	REF3000-21108	Potentiostat
VINIT	POTEN	5.00000E-001	F	Initial &E (V)
VLIMIT1	POTEN	-1.00000E+000	F	Scan Limit &1 (V)
VLIMIT2	POTEN	5.00000E-001	F	Scan Limit &2 (V)
VFINAL	POTEN	5.00000E-001	F	Final &E (V)
SCANRATE	QUANT	3.99999E+002	&Scan Rate (mV/s)
STEPSIZE	QUANT	1.00000E+000	St&ep Size (mV)
CYCLES	IQUANT	1	C&ycles (#)
IMODE	SELECTOR	1	I/E Range &Mode
IRANGE	QUANT	1.00000E+001	&Max Current (mA)
AREA	QUANT	1.00000E+000	Electrode &Area (cm^2)
ELECTRODETYPE	SELECTOR	0	Electrode Type
STRIPPING	TOGGLE	F	Used for Stripping
POLARITY	TOGGLE	F	Signal Polarity
CONDIT	TWOPARAM	F	1.50000E+001	0.00000E+000	Conditionin&g	Time(s)	E(V)
DELAY	TWOPARAM	F	5.00000E+000	0.00000E+000	Init. De&lay	Time(s)	Stab.(mV/s)
EQDELAY	QUANT	0.00000E+000	Equil. &Time (s)
IRCOMP	SELECTOR	0	IRCom&p
PFCOR	QUANT	5.00000E+001	PF Corr. (ohm)
SAMPLINGMODE	SELECTOR	1	Sampling &Mode
EOC	QUANT	0	Open Circuit (V)
PSTATMODEL	IQUANT	5	Pstat Model
PSTATSECTION	LABEL	REF3000-21108	Pstat Section
PSTATSERIALNO	LABEL	21108	Pstat Serial Number
CTRLMODE	IQUANT	1	Control Mode
ELECTROMETER	IQUANT	0	RE=0 or CS=1
IESTAB	IQUANT	2	I/E Stability
CASPEED	IQUANT	4	Control Amp Speed
CONVENTION	IQUANT	1	Current Convention
ICHRANGE	IQUANT	2	Ich Range
ICHRANGEMODE	TOGGLE	F	Ich Auto Range
ICHOFFSETENABLE	TOGGLE	F	Ich Offset Enable
ICHOFFSET	QUANT	0	Ich Offset (V)
ICHFILTER	IQUANT	2	Ich Filter
VCHRANGE	IQUANT	2	Vch Range
VCHRANGEMODE	TOGGLE	F	Vch Auto Range
VCHOFFSETENABLE	TOGGLE	F	Vch Offset Enable
VCHOFFSET	QUANT	0	Vch Offset (V)
VCHFILTER	IQUANT	2	Vch Filter
ACHRANGE	IQUANT	2	Ach Range
ACHOFFSETENABLE	TOGGLE	F	Ach Offset Enable
ACHOFFSET	QUANT	0	Ach Offset (V)
ACHFILTER	IQUANT	0	Ach Filter
IERANGELOWERLIMIT	IQUANT	2	I/E Range Lower Limit
IERANGEMODE	TOGGLE	F	I/E AutoRange
IERANGE	IQUANT	10	I/E Range
POSFEEDENABLE	TOGGLE	F	Positive Feedback IR Comp
POSFEEDRESISTANCE	QUANT	0	Positive Feedback Resistance (ohm)
ACHSELECT	IQUANT	0	Ach Select
SENSECABLEID	IQUANT	14	Sense Cable ID
PWRCABLEID	IQUANT	7	Power Cable ID
DCCALDATE	LABEL	11/9/2022	DC Calibration Date
ACCALDATE	LABEL	11/9/2022	AC Calibration Date
THERMOSELECT	IQUANT	1	Thermo Select
FRAMEWORKVERSION	LABEL	7.8.2	Framework Version
INSTRUMENTVERSION	LABEL	4.40	Instrument Version
COMPLIANCEVOLTAGE	IQUANT	0	Compliance Voltage
CURVE1	TABLE
	Pt	T	Vf	Im	Vu	Sig	Ach	IERange	Over	Temp
	#	s	V vs. Ref.	A	V	V	V	#	bits	deg C
	0	0.0025	4.98808E-001	1.48260E-005	0.00000E+000	5.00000E-001	-7.89272E-004	10	..........a	-327.74
	31	0.08	4.67748E-001	2.96197E-006	0.00000E+000	4.69000E-001	-7.82606E-004	10	..........a	-327.74
	62	0.1575	4.36811E-001	5.44490E-008	0.00000E+000	4.38000E-001	-7.62605E-004	10	..........a	-327.74
	93	0.235	4.05888E-001	-8.14466E-007	0.00000E+000	4.07000E-001	-7.29272E-004	10	..........a	-327.74
	124	0.3125	3.74821E-001	-2.65255E-006	0.00000E+000	3.76000E-001	-7.49272E-004	10	..........a	-327.74
	155	0.39	3.43828E-001	-3.85567E-006	0.00000E+000	3.45000E-001	-7.22606E-004	10	..........a	-327.74
	186	0.4675	3.12901E-001	-4.08961E-006	0.00000E+000	3.14000E-001	-6.89272E-004	10	..........a	-327.74
	217	0.545	2.81874E-001	-3.85567E-006	0.00000E+000	2.83000E-001	-7.49272E-004	10	..........a	-327.74
	248	0.6225	2.50898E-001	-4.18987E-006	0.00000E+000	2.52000E-001	-7.69272E-004	10	..........a	-327.74
	279	0.7	2.19781E-001	-4.18987E-006	0.00000E+000	2.21000E-001	-7.29272E-004	10	..........a	-327.74
	310	0.7775	1.88931E-001	-3.92251E-006	0.00000E+000	1.90000E-001	-7.62605E-004	10	..........a	-327.74
	341	0.855	1.57944E-001	-4.18987E-006	0.00000E+000	1.59000E-001	-7.62605E-004	10	..........a	-327.74
	372	0.9325	1.26954E-001	-4.29012E-006	0.00000E+000	1.28000E-001	-7.42605E-004	10	..........a	-327.74
	403	1.01	9.59177E-002	-4.25670E-006	0.00000E+000	9.70000E-002	-7.42605E-004	10	..........a	-327.74
	434	1.0875	6.50177E-002	-4.45722E-006	0.00000E+000	6.60000E-002	-7.15939E-004	10	..........a	-327.74
	465	1.165	3.40011E-002	-4.32354E-006	0.00000E+000	3.50000E-002	-7.55939E-004	10	..........a	-327.74
	496	1.2425	2.92773E-003	-4.65774E-006	0.00000E+000	4.00001E-003	-7.29272E-004	10	..........a	-327.74
	527	1.32	-2.80056E-002	-4.72458E-006	0.00000E+000	-2.70000E-002	-7.09272E-004	10	..........a	-327.74
	558	1.3975	-5.90456E-002	-4.59090E-006	0.00000E+000	-5.80000E-002	-6.82606E-004	10	..........a	-327.74
	589	1.475	-8.99623E-002	-4.25670E-006	0.00000E+000	-8.90000E-002	-8.09272E-004	10	..........a	-327.74
	620	1.5525	-1.20972E-001	-4.85826E-006	0.00000E+000	-1.20000E-001	-7.15939E-004	10	..........a	-327.74
	651	1.63	-1.51949E-001	-4.99194E-006	0.00000E+000	-1.51000E-001	-7.42605E-004	10	..........a	-327.74
	682	1.7075	-1.82939E-001	-5.12562E-006	0.00000E+000	-1.82000E-001	-7.35939E-004	10	..........a	-327.74
	713	1.785	-2.13882E-001	-6.06137E-006	0.00000E+000	-2.13000E-001	-6.82606E-004	10	..........a	-327.74
	744	1.8625	-2.44872E-001	-7.76579E-006	0.00000E+000	-2.44000E-001	-7.55939E-004	10	..........a	-327.74
	775	1.94	-2.75892E-001	-1.03057E-005	0.00000E+000	-2.75000E-001	-7.89272E-004	10	..........a	-327.74
	806	2.0175	-3.06906E-001	-1.35474E-005	0.00000E+000	-3.06000E-001	-7.29272E-004	10	..........a	-327.74
	837	2.095	-3.37872E-001	-1.76580E-005	0.00000E+000	-3.37000E-001	-7.29272E-004	10	..........a	-327.74
	868	2.1725	-3.68916E-001	-2.15013E-005	0.00000E+000	-3.68000E-001	-6.75939E-004	10	..........a	-327.74
	899	2.25	-3.99849E-001	-2.56120E-005	0.00000E+000	-3.99000E-001	-7.22606E-004	10	..........a	-327.74
	930	2.3275	-4.30802E-001	-3.35993E-005	0.00000E+000	-4.30000E-001	-7.95939E-004	10	..........a	-327.74
	961	2.405	-4.61829E-001	-6.70191E-005	0.00000E+000	-4.61000E-001	-6.75939E-004	10	..........a	-327.74
	992	2.4825	-4.92839E-001	-1.64471E-004	0.00000E+000	-4.92000E-001	-7.35939E-004	10	..........a	-327.74
	1023	2.56	-5.23726E-001	-3.70404E-004	0.00000E+000	-5.23000E-001	-7.29272E-004	10	..........a	-327.74
	1054	2.6375	-5.54796E-001	-5.49668E-004	0.00000E+000	-5.54000E-001	-7.22606E-004	10	..........a	-327.74
	1085	2.715	-5.85772E-001	-4.87507E-004	0.00000E+000	-5.85000E-001	-7.02605E-004	10	..........a	-327.74
	1116	2.7925	-6.16689E-001	-3.78558E-004	0.00000E+000	-6.16000E-001	-7.09272E-004	10	..........a	-327.74
	1147	2.87	-6.47739E-001	-3.17901E-004	0.00000E+000	-6.47000E-001	-7.55939E-004	10	..........a	-327.74
	1178	2.9475	-6.78706E-001	-2.80204E-004	0.00000E+000	-6.78000E-001	-7.15939E-004	10	..........a	-327.74
	1209	3.025	-7.09722E-001	-2.53000E-004	0.00000E+000	-7.09000E-001	-7.62605E-004	10	..........a	-327.74
	1240	3.1025	-7.40709E-001	-2.32648E-004	0.00000E+000	-7.40000E-001	-7.49272E-004	10	..........a	-327.74
	1271	3.18	-7.71649E-001	-2.16673E-004	0.00000E+000	-7.71000E-001	-7.95939E-004	10	..........a	-327.74
	1302	3.2575	-8.02716E-001	-2.03907E-004	0.00000E+000	-8.02000E-001	-7.55939E-004	10	..........a	-327.74
	1333	3.335	-8.33619E-001	-1.93313E-004	0.00000E+000	-8.33000E-001	-7.75939E-004	10	..........a	-327.74
	1364	3.4125	-8.64576E-001	-1.85058E-004	0.00000E+000	-8.64000E-001	-7.22606E-004	10	..........a	-327.74
	1395	3.49	-8.95616E-001	-1.77338E-004	0.00000E+000	-8.95000E-001	-7.95939E-004	10	..........a	-327.74
	1426	3.5675	-9.26632E-001	-1.70955E-004	0.00000E+000	-9.26000E-001	-7.55939E-004	10	..........a	-327.74
	1457	3.645	-9.57639E-001	-1.65206E-004	0.00000E+000	-9.57000E-001	-7.22606E-004	10	..........a	-327.74
	1488	3.7225	-9.88559E-001	-1.60962E-004	0.00000E+000	-9.88000E-001	-7.35939E-004	10	..........a	-327.74
	1519	3.8	-9.81592E-001	-1.47694E-004	0.00000E+000	-9.81000E-001	-7.29272E-004	10	..........a	-327.74
	1550	3.8775	-9.50646E-001	-1.39573E-004	0.00000E+000	-9.50000E-001	-7.75939E-004	10	..........a	-327.74
	1581	3.955	-9.19626E-001	-1.33725E-004	0.00000E+000	-9.19000E-001	-8.09272E-004	10	..........a	-327.74
	1612	4.0325	-8.88562E-001	-1.29314E-004	0.00000E+000	-8.88000E-001	-7.02605E-004	10	..........a	-327.74
	1643	4.11	-8.57589E-001	-1.26072E-004	0.00000E+000	-8.57000E-001	-7.82606E-004	10	..........a	-327.74
	1674	4.1875	-8.26686E-001	-1.22529E-004	0.00000E+000	-8.26000E-001	-7.22606E-004	10	..........a	-327.74
	1705	4.265	-7.95639E-001	-1.19154E-004	0.00000E+000	-7.95000E-001	-6.82606E-004	10	..........a	-327.74
	1736	4.3425	-7.64752E-001	-1.16514E-004	0.00000E+000	-7.64000E-001	-7.22606E-004	10	..........a	-327.74
	1767	4.42	-7.33712E-001	-1.13539E-004	0.00000E+000	-7.33000E-001	-6.89272E-004	10	..........a	-327.74
	1798	4.4975	-7.02659E-001	-1.10832E-004	0.00000E+000	-7.02000E-001	-7.49272E-004	10	..........a	-327.74
	1829	4.575	-6.71762E-001	-1.07123E-004	0.00000E+000	-6.71000E-001	-7.55939E-004	10	..........a	-327.74
	1860	4.6525	-6.40689E-001	-1.01742E-004	0.00000E+000	-6.40000E-001	-7.09272E-004	10	..........a	-327.74
	1891	4.73	-6.09789E-001	-9.06803E-005	0.00000E+000	-6.09000E-001	-7.42605E-004	10	..........a	-327.74
	1922	4.8075	-5.78776E-001	-5.92657E-005	0.00000E+000	-5.78000E-001	-7.69272E-004	10	..........a	-327.74
	1953	4.885	-5.47722E-001	5.12202E-005	0.00000E+000	-5.47000E-001	-8.02606E-004	10	..........a	-327.74
	1984	4.9625	-5.16852E-001	2.98660E-004	0.00000E+000	-5.16000E-001	-8.22606E-004	10	..........a	-327.74
	2015	5.04	-4.85856E-001	3.74423E-004	0.00000E+000	-4.85000E-001	-7.69272E-004	10	..........a	-327.74
	2046	5.1175	-4.54819E-001	2.97858E-004	0.00000E+000	-4.54000E-001	-7.49272E-004	10	..........a	-327.74
	2077	5.195	-4.23809E-001	2.24736E-004	0.00000E+000	-4.23000E-001	-7.62605E-004	10	..........a	-327.74
	2108	5.2725	-3.92826E-001	1.77213E-004	0.00000E+000	-3.92000E-001	-7.82606E-004	10	..........a	-327.74
	2139	5.35	-3.61862E-001	1.46901E-004	0.00000E+000	-3.61000E-001	-7.49272E-004	10	..........a	-327.74
	2170	5.4275	-3.30856E-001	1.24744E-004	0.00000E+000	-3.30000E-001	-8.09272E-004	10	..........a	-327.74
	2201	5.505	-2.99876E-001	1.08769E-004	0.00000E+000	-2.99000E-001	-7.75939E-004	10	..........a	-327.74
	2232	5.5825	-2.68879E-001	9.69384E-005	0.00000E+000	-2.68000E-001	-7.69272E-004	10	..........a	-327.74
	2263	5.66	-2.37889E-001	8.78483E-005	0.00000E+000	-2.37000E-001	-7.69272E-004	10	..........a	-327.74
	2294	5.7375	-2.06882E-001	8.02286E-005	0.00000E+000	-2.06000E-001	-7.69272E-004	10	..........a	-327.74
	2325	5.815	-1.75962E-001	7.37785E-005	0.00000E+000	-1.75000E-001	-7.29272E-004	10	..........a	-327.74
	2356	5.8925	-1.44946E-001	6.79635E-005	0.00000E+000	-1.44000E-001	-8.09272E-004	10	..........a	-327.74
	2387	5.97	-1.13906E-001	6.39531E-005	0.00000E+000	-1.13000E-001	-7.62605E-004	10	..........a	-327.74
	2418	6.0475	-8.30056E-002	6.03103E-005	0.00000E+000	-8.20000E-002	-7.82606E-004	10	..........a	-327.74
	2449	6.125	-5.19456E-002	5.67344E-005	0.00000E+000	-5.10000E-002	-8.02606E-004	10	..........a	-327.74
	2480	6.2025	-2.09689E-002	5.59658E-005	0.00000E+000	-2.00000E-002	-7.69272E-004	10	..........a	-327.74
	2511	6.28	1.00444E-002	5.45621E-005	0.00000E+000	1.10000E-002	-8.22606E-004	10	..........a	-327.74
	2542	6.3575	4.10711E-002	5.25235E-005	0.00000E+000	4.20000E-002	-8.15939E-004	10	..........a	-327.74
	2573	6.435	7.19777E-002	5.02176E-005	0.00000E+000	7.30000E-002	-8.22606E-004	10	..........a	-327.74
	2604	6.5125	1.02981E-001	4.70427E-005	0.00000E+000	1.04000E-001	-7.82606E-004	10	..........a	-327.74
	2635	6.59	1.33981E-001	4.33665E-005	0.00000E+000	1.35000E-001	-7.55939E-004	10	..........a	-327.74
	2666	6.6675	1.64934E-001	4.01582E-005	0.00000E+000	1.66000E-001	-7.75939E-004	10	..........a	-327.74
	2697	6.745	1.95898E-001	3.76183E-005	0.00000E+000	1.97000E-001	-7.82606E-004	10	..........a	-327.74
	2728	6.8225	2.26864E-001	3.53458E-005	0.00000E+000	2.28000E-001	-8.02606E-004	10	..........a	-327.74
	2759	6.9	2.57874E-001	3.30732E-005	0.00000E+000	2.59000E-001	-7.95939E-004	10	..........a	-327.74
	2790	6.9775	2.88961E-001	3.15025E-005	0.00000E+000	2.90000E-001	-8.02606E-004	10	..........a	-327.74
	2821	7.055	3.19898E-001	3.02325E-005	0.00000E+000	3.21000E-001	-7.29272E-004	10	..........a	-327.74
	2852	7.1325	3.50861E-001	2.88623E-005	0.00000E+000	3.52000E-001	-8.02606E-004	10	..........a	-327.74
	2883	7.21	3.81884E-001	2.79934E-005	0.00000E+000	3.83000E-001	-8.42605E-004	10	..........a	-327.74
	2914	7.2875	4.12821E-001	2.71913E-005	0.00000E+000	4.14000E-001	-7.62605E-004	10	..........a	-327.74
	2945	7.365	4.43841E-001	2.60885E-005	0.00000E+000	4.45000E-001	-7.62605E-004	10	..........a	-327.74
	2976	7.4425	4.74881E-001	2.49522E-005	0.00000E+000	4.76000E-001	-7.69272E-004	10	..........a	-327.74
	3000	7.5025	4.98821E-001	2.41835E-005	0.00000E+000	5.00000E-001	-7.42605E-004	10	..........a	-327.74
CURVE2	TABLE
	Pt	T	Vf	Im	Vu	Sig	Ach	IERange	Over	Temp
	#	s	V vs. Ref.	A	V	V	V	#	bits	deg C
	3001	7.505	4.98798E-001	2.34483E-005	0.00000E+000	5.00000E-001	-7.75939E-004	10	..........a	-327.74