File: data/02-SI/Figures_S9_S11_RDE/18btmapaq-rde/1mkcl-18btmapaq-nitrogen-700mvpers.DTA
EXPLAIN
TAG	CV
TITLE	LABEL	Cyclic Voltammetry	Test &Identifier
DATE	LABEL	1/31/2023	Date
TIME	LABEL	15:21:55	Time
NOTES	NOTES	1	&Notes...

PSTAT	PSTAT	REF3000-21108	Potentiostat
VINIT	POTEN	5.00000E-001	F	Initial &E (V)
VLIMIT1	POTEN	-1.00000E+000	F	Scan Limit &1 (V)
VLIMIT2	POTEN	5.00000E-001	F	Scan Limit &2 (V)
VFINAL	POTEN	5.00000E-001	F	Final &E (V)
SCANRATE	QUANT	6.97673E+002	&Scan Rate (mV/s)
STEPSIZE	QUANT	1.00000E+000	St&ep Size (mV)
CYCLES	IQUANT	1	C&ycles (#)
IMODE	SELECTOR	1	I/E Range &Mode
IRANGE	QUANT	1.00000E+001	&Max Current (mA)
AREA	QUANT	1.00000E+000	Electrode &Area (cm^2)
ELECTRODETYPE	SELECTOR	0	Electrode Type
STRIPPING	TOGGLE	F	Used for Stripping
POLARITY	TOGGLE	F	Signal Polarity
CONDIT	TWOPARAM	F	1.50000E+001	0.00000E+000	Conditionin&g	Time(s)	E(V)
DELAY	TWOPARAM	F	5.00000E+000	0.00000E+000	Init. De&lay	Time(s)	Stab.(mV/s)
EQDELAY	QUANT	0.00000E+000	Equil. &Time (s)
IRCOMP	SELECTOR	0	IRCom&p
PFCOR	QUANT	5.00000E+001	PF Corr. (ohm)
SAMPLINGMODE	SELECTOR	1	Sampling &Mode
EOC	QUANT	0	Open Circuit (V)
PSTATMODEL	IQUANT	5	Pstat Model
PSTATSECTION	LABEL	REF3000-21108	Pstat Section
PSTATSERIALNO	LABEL	21108	Pstat Serial Number
CTRLMODE	IQUANT	1	Control Mode
ELECTROMETER	IQUANT	0	RE=0 or CS=1
IESTAB	IQUANT	2	I/E Stability
CASPEED	IQUANT	4	Control Amp Speed
CONVENTION	IQUANT	1	Current Convention
ICHRANGE	IQUANT	2	Ich Range
ICHRANGEMODE	TOGGLE	F	Ich Auto Range
ICHOFFSETENABLE	TOGGLE	F	Ich Offset Enable
ICHOFFSET	QUANT	0	Ich Offset (V)
ICHFILTER	IQUANT	1	Ich Filter
VCHRANGE	IQUANT	2	Vch Range
VCHRANGEMODE	TOGGLE	F	Vch Auto Range
VCHOFFSETENABLE	TOGGLE	F	Vch Offset Enable
VCHOFFSET	QUANT	0	Vch Offset (V)
VCHFILTER	IQUANT	1	Vch Filter
ACHRANGE	IQUANT	2	Ach Range
ACHOFFSETENABLE	TOGGLE	F	Ach Offset Enable
ACHOFFSET	QUANT	0	Ach Offset (V)
ACHFILTER	IQUANT	0	Ach Filter
IERANGELOWERLIMIT	IQUANT	2	I/E Range Lower Limit
IERANGEMODE	TOGGLE	F	I/E AutoRange
IERANGE	IQUANT	10	I/E Range
POSFEEDENABLE	TOGGLE	F	Positive Feedback IR Comp
POSFEEDRESISTANCE	QUANT	0	Positive Feedback Resistance (ohm)
ACHSELECT	IQUANT	0	Ach Select
SENSECABLEID	IQUANT	14	Sense Cable ID
PWRCABLEID	IQUANT	7	Power Cable ID
DCCALDATE	LABEL	11/9/2022	DC Calibration Date
ACCALDATE	LABEL	11/9/2022	AC Calibration Date
THERMOSELECT	IQUANT	1	Thermo Select
FRAMEWORKVERSION	LABEL	7.8.2	Framework Version
INSTRUMENTVERSION	LABEL	4.40	Instrument Version
COMPLIANCEVOLTAGE	IQUANT	0	Compliance Voltage
CURVE1	TABLE
	Pt	T	Vf	Im	Vu	Sig	Ach	IERange	Over	Temp
	#	s	V vs. Ref.	A	V	V	V	#	bits	deg C
	0	0.001433	4.98762E-001	2.01004E-005	0.00000E+000	5.00000E-001	-7.84828E-004	10	..........a	-327.74
	32	0.0473	4.66703E-001	6.94870E-006	0.00000E+000	4.67900E-001	-8.51494E-004	10	..........a	-327.74
	64	0.093167	4.34632E-001	1.11006E-006	0.00000E+000	4.35800E-001	-9.29272E-004	10	..........a	-327.74
	96	0.139033	4.02585E-001	-2.46389E-007	0.00000E+000	4.03700E-001	-8.29272E-004	10	..........a	-327.74
	128	0.1849	3.70338E-001	-3.90291E-006	0.00000E+000	3.71550E-001	-8.29272E-004	10	..........a	-327.74
	160	0.230767	3.38291E-001	-5.14141E-006	0.00000E+000	3.39450E-001	-8.07050E-004	10	..........a	-327.74
	192	0.276633	3.06173E-001	-4.07984E-006	0.00000E+000	3.07350E-001	-8.40383E-004	10	..........a	-327.74
	224	0.3225	2.74132E-001	-5.14141E-006	0.00000E+000	2.75250E-001	-7.73717E-004	10	..........a	-327.74
	256	0.368367	2.41973E-001	-6.26195E-006	0.00000E+000	2.43150E-001	-8.40383E-004	10	..........a	-327.74
	288	0.414233	2.09885E-001	-5.25936E-006	0.00000E+000	2.11050E-001	-8.51494E-004	10	..........a	-327.74
	320	0.4601	1.77838E-001	-4.84653E-006	0.00000E+000	1.78950E-001	-8.29272E-004	10	..........a	-327.74
	352	0.505967	1.45762E-001	-5.08243E-006	0.00000E+000	1.46850E-001	-8.40383E-004	10	..........a	-327.74
	384	0.551833	1.13626E-001	-5.08243E-006	0.00000E+000	1.14700E-001	-8.62605E-004	10	..........a	-327.74
	416	0.5977	8.15086E-002	-5.67219E-006	0.00000E+000	8.26000E-002	-7.84828E-004	10	..........a	-327.74
	448	0.643567	4.94263E-002	-7.08762E-006	0.00000E+000	5.05000E-002	-7.84828E-004	10	..........a	-327.74
	480	0.689433	1.73792E-002	-7.79533E-006	0.00000E+000	1.84000E-002	-7.84828E-004	10	..........a	-327.74
	512	0.7353	-1.47737E-002	-7.32352E-006	0.00000E+000	-1.37000E-002	-8.07050E-004	10	..........a	-327.74
	544	0.781167	-4.68090E-002	-6.49786E-006	0.00000E+000	-4.58000E-002	-8.07050E-004	10	..........a	-327.74
	576	0.827033	-7.88914E-002	-6.67479E-006	0.00000E+000	-7.79000E-002	-8.07050E-004	10	..........a	-327.74
	608	0.8729	-1.11074E-001	-7.08762E-006	0.00000E+000	-1.10050E-001	-8.29272E-004	10	..........a	-327.74
	640	0.918767	-1.43144E-001	-7.44147E-006	0.00000E+000	-1.42150E-001	-7.73717E-004	10	..........a	-327.74
	672	0.96463	-1.75221E-001	-8.09021E-006	0.00000E+000	-1.74250E-001	-8.62605E-004	10	..........a	-327.74
	704	1.0105	-2.07356E-001	-8.67997E-006	0.00000E+000	-2.06350E-001	-8.07050E-004	10	..........a	-327.74
	736	1.05637	-2.39456E-001	-9.91847E-006	0.00000E+000	-2.38450E-001	-7.95939E-004	10	..........a	-327.74
	768	1.10223	-2.71468E-001	-1.23955E-005	0.00000E+000	-2.70550E-001	-7.84828E-004	10	..........a	-327.74
	800	1.1481	-3.03585E-001	-1.56392E-005	0.00000E+000	-3.02650E-001	-7.95939E-004	10	..........a	-327.74
	832	1.19397	-3.35674E-001	-2.05931E-005	0.00000E+000	-3.34750E-001	-7.84828E-004	10	..........a	-327.74
	864	1.23983	-3.67856E-001	-2.72574E-005	0.00000E+000	-3.66900E-001	-8.07050E-004	10	..........a	-327.74
	896	1.2857	-3.99897E-001	-3.49243E-005	0.00000E+000	-3.99000E-001	-7.51494E-004	10	..........a	-327.74
	928	1.33157	-4.32021E-001	-4.77811E-005	0.00000E+000	-4.31100E-001	-7.62605E-004	10	..........a	-327.74
	960	1.37743	-4.64085E-001	-9.45492E-005	0.00000E+000	-4.63200E-001	-8.29272E-004	10	..........a	-327.74
	992	1.4233	-4.96174E-001	-2.30666E-004	0.00000E+000	-4.95300E-001	-8.51494E-004	10	..........a	-327.74
	1024	1.46917	-5.28268E-001	-4.96943E-004	0.00000E+000	-5.27400E-001	-8.95939E-004	10	..........a	-327.74
	1056	1.51503	-5.60338E-001	-7.09788E-004	0.00000E+000	-5.59500E-001	-7.73717E-004	10	..........a	-327.74
	1088	1.5609	-5.92462E-001	-6.31586E-004	0.00000E+000	-5.91650E-001	-8.29272E-004	10	..........a	-327.74
	1120	1.60677	-6.24538E-001	-4.92756E-004	0.00000E+000	-6.23750E-001	-8.62605E-004	10	..........a	-327.74
	1152	1.65263	-6.56609E-001	-4.17090E-004	0.00000E+000	-6.55850E-001	-8.62605E-004	10	..........a	-327.74
	1184	1.6985	-6.88674E-001	-3.67609E-004	0.00000E+000	-6.87950E-001	-8.73717E-004	10	..........a	-327.74
	1216	1.74437	-7.20738E-001	-3.32105E-004	0.00000E+000	-7.20050E-001	-8.51494E-004	10	..........a	-327.74
	1248	1.79023	-7.52944E-001	-3.04504E-004	0.00000E+000	-7.52150E-001	-8.62605E-004	10	..........a	-327.74
	1280	1.8361	-7.85050E-001	-2.83922E-004	0.00000E+000	-7.84250E-001	-8.73717E-004	10	..........a	-327.74
	1312	1.88197	-8.17121E-001	-2.65934E-004	0.00000E+000	-8.16350E-001	-7.95939E-004	10	..........a	-327.74
	1344	1.92783	-8.49180E-001	-2.52192E-004	0.00000E+000	-8.48500E-001	-8.07050E-004	10	..........a	-327.74
	1376	1.9737	-8.81221E-001	-2.39866E-004	0.00000E+000	-8.80600E-001	-8.40383E-004	10	..........a	-327.74
	1408	2.01957	-9.13332E-001	-2.28189E-004	0.00000E+000	-9.12700E-001	-8.29272E-004	10	..........a	-327.74
	1440	2.06543	-9.45474E-001	-2.20286E-004	0.00000E+000	-9.44800E-001	-8.40383E-004	10	..........a	-327.74
	1472	2.1113	-9.77544E-001	-2.13268E-004	0.00000E+000	-9.76900E-001	-7.95939E-004	10	..........a	-327.74
	1504	2.15717	-9.91556E-001	-1.95988E-004	0.00000E+000	-9.90950E-001	-8.51494E-004	10	..........a	-327.74
	1536	2.20303	-9.59521E-001	-1.79593E-004	0.00000E+000	-9.58850E-001	-8.29272E-004	10	..........a	-327.74
	1568	2.2489	-9.27403E-001	-1.71690E-004	0.00000E+000	-9.26750E-001	-8.07050E-004	10	..........a	-327.74
	1600	2.29477	-8.95332E-001	-1.65851E-004	0.00000E+000	-8.94650E-001	-8.18161E-004	10	..........a	-327.74
	1632	2.34063	-8.63191E-001	-1.57949E-004	0.00000E+000	-8.62550E-001	-8.40383E-004	10	..........a	-327.74
	1664	2.3865	-8.31038E-001	-1.52818E-004	0.00000E+000	-8.30400E-001	-8.29272E-004	10	..........a	-327.74
	1696	2.43237	-7.98991E-001	-1.48158E-004	0.00000E+000	-7.98300E-001	-8.07050E-004	10	..........a	-327.74
	1728	2.47823	-7.66938E-001	-1.43617E-004	0.00000E+000	-7.66200E-001	-8.18161E-004	10	..........a	-327.74
	1760	2.5241	-7.34868E-001	-1.40786E-004	0.00000E+000	-7.34100E-001	-8.29272E-004	10	..........a	-327.74
	1792	2.56997	-7.02821E-001	-1.35361E-004	0.00000E+000	-7.02000E-001	-8.18161E-004	10	..........a	-327.74
	1824	2.61583	-6.70685E-001	-1.27281E-004	0.00000E+000	-6.69900E-001	-8.40383E-004	10	..........a	-327.74
	1856	2.6617	-6.38591E-001	-1.17137E-004	0.00000E+000	-6.37800E-001	-8.51494E-004	10	..........a	-327.74
	1888	2.70757	-6.06503E-001	-9.80878E-005	0.00000E+000	-6.05650E-001	-8.62605E-004	10	..........a	-327.74
	1920	2.75343	-5.74485E-001	-4.25912E-005	0.00000E+000	-5.73550E-001	-8.29272E-004	10	..........a	-327.74
	1952	2.7993	-5.42350E-001	1.37109E-004	0.00000E+000	-5.41450E-001	-9.29272E-004	10	..........a	-327.74
	1984	2.84517	-5.10244E-001	4.61419E-004	0.00000E+000	-5.09350E-001	-8.29272E-004	10	..........a	-327.74
	2016	2.89103	-4.78091E-001	5.10133E-004	0.00000E+000	-4.77250E-001	-9.07050E-004	10	..........a	-327.74
	2048	2.9369	-4.46044E-001	3.93360E-004	0.00000E+000	-4.45150E-001	-8.29272E-004	10	..........a	-327.74
	2080	2.98277	-4.13897E-001	2.99175E-004	0.00000E+000	-4.13050E-001	-8.84828E-004	10	..........a	-327.74
	2112	3.02863	-3.81862E-001	2.40317E-004	0.00000E+000	-3.80950E-001	-8.73717E-004	10	..........a	-327.74
	2144	3.0745	-3.49732E-001	2.03339E-004	0.00000E+000	-3.48800E-001	-8.95939E-004	10	..........a	-327.74
	2176	3.12037	-3.17621E-001	1.76623E-004	0.00000E+000	-3.16700E-001	-8.62605E-004	10	..........a	-327.74
	2208	3.16623	-2.85509E-001	1.57928E-004	0.00000E+000	-2.84600E-001	-8.29272E-004	10	..........a	-327.74
	2240	3.2121	-2.53403E-001	1.42122E-004	0.00000E+000	-2.52500E-001	-8.40383E-004	10	..........a	-327.74
	2272	3.25797	-2.21338E-001	1.31093E-004	0.00000E+000	-2.20400E-001	-8.07050E-004	10	..........a	-327.74
	2304	3.30383	-1.89309E-001	1.20065E-004	0.00000E+000	-1.88300E-001	-8.18161E-004	10	..........a	-327.74
	2336	3.3497	-1.57115E-001	1.11101E-004	0.00000E+000	-1.56200E-001	-8.29272E-004	10	..........a	-327.74
	2368	3.39557	-1.25091E-001	1.03434E-004	0.00000E+000	-1.24050E-001	-8.29272E-004	10	..........a	-327.74
	2400	3.44143	-9.29855E-002	9.68873E-005	0.00000E+000	-9.19500E-002	-8.62605E-004	10	..........a	-327.74
	2432	3.4873	-6.08678E-002	9.16384E-005	0.00000E+000	-5.98500E-002	-7.95939E-004	10	..........a	-327.74
	2464	3.53317	-2.88208E-002	8.75101E-005	0.00000E+000	-2.77500E-002	-8.40383E-004	10	..........a	-327.74
	2496	3.57903	3.27336E-003	8.41484E-005	0.00000E+000	4.35001E-003	-8.51494E-004	10	..........a	-327.74
	2528	3.6249	3.53734E-002	8.09047E-005	0.00000E+000	3.64500E-002	-8.95939E-004	10	..........a	-327.74
	2560	3.67077	6.74851E-002	7.63636E-005	0.00000E+000	6.85500E-002	-8.73717E-004	10	..........a	-327.74
	2592	3.71663	9.95910E-002	7.30609E-005	0.00000E+000	1.00650E-001	-7.62605E-004	10	..........a	-327.74
	2624	3.7625	1.31750E-001	6.92865E-005	0.00000E+000	1.32800E-001	-8.29272E-004	10	..........a	-327.74
	2656	3.80837	1.63815E-001	6.44504E-005	0.00000E+000	1.64900E-001	-8.40383E-004	10	..........a	-327.74
	2688	3.85423	1.95803E-001	6.07349E-005	0.00000E+000	1.97000E-001	-7.73717E-004	10	..........a	-327.74
	2720	3.9001	2.27944E-001	5.90246E-005	0.00000E+000	2.29100E-001	-7.95939E-004	10	..........a	-327.74
	2752	3.94597	2.60044E-001	5.64297E-005	0.00000E+000	2.61200E-001	-8.18161E-004	10	..........a	-327.74
	2784	3.99183	2.92191E-001	5.37168E-005	0.00000E+000	2.93300E-001	-8.73717E-004	10	..........a	-327.74
	2816	4.0377	3.24250E-001	5.16526E-005	0.00000E+000	3.25400E-001	-8.62605E-004	10	..........a	-327.74
	2848	4.08357	3.56367E-001	5.08269E-005	0.00000E+000	3.57550E-001	-8.40383E-004	10	..........a	-327.74
	2880	4.12943	3.88426E-001	4.99423E-005	0.00000E+000	3.89650E-001	-8.84828E-004	10	..........a	-327.74
	2912	4.1753	4.20526E-001	5.01192E-005	0.00000E+000	4.21750E-001	-8.51494E-004	10	..........a	-327.74
	2944	4.22117	4.52579E-001	4.76422E-005	0.00000E+000	4.53850E-001	-9.07050E-004	10	..........a	-327.74
	2976	4.26703	4.84732E-001	4.71704E-005	0.00000E+000	4.85950E-001	-8.62605E-004	10	..........a	-327.74
	2990	4.2871	4.98797E-001	4.59319E-005	0.00000E+000	5.00000E-001	-8.73717E-004	10	..........a	-327.74
CURVE2	TABLE
	Pt	T	Vf	Im	Vu	Sig	Ach	IERange	Over	Temp
	#	s	V vs. Ref.	A	V	V	V	#	bits	deg C
	2991	4.28853	4.98744E-001	4.43396E-005	0.00000E+000	5.00000E-001	-8.84828E-004	10	..........a	-327.74