File: data/02-SI/Figures_S9_S11_RDE/18btmapaq-rde/1mkcl-18btmapaq-nitrogen-900mvpers.DTA
EXPLAIN
TAG	CV
TITLE	LABEL	Cyclic Voltammetry	Test &Identifier
DATE	LABEL	1/31/2023	Date
TIME	LABEL	15:22:20	Time
NOTES	NOTES	1	&Notes...

PSTAT	PSTAT	REF3000-21108	Potentiostat
VINIT	POTEN	5.00000E-001	F	Initial &E (V)
VLIMIT1	POTEN	-1.00000E+000	F	Scan Limit &1 (V)
VLIMIT2	POTEN	5.00000E-001	F	Scan Limit &2 (V)
VFINAL	POTEN	5.00000E-001	F	Final &E (V)
SCANRATE	QUANT	8.95521E+002	&Scan Rate (mV/s)
STEPSIZE	QUANT	1.00000E+000	St&ep Size (mV)
CYCLES	IQUANT	1	C&ycles (#)
IMODE	SELECTOR	1	I/E Range &Mode
IRANGE	QUANT	1.00000E+001	&Max Current (mA)
AREA	QUANT	1.00000E+000	Electrode &Area (cm^2)
ELECTRODETYPE	SELECTOR	0	Electrode Type
STRIPPING	TOGGLE	F	Used for Stripping
POLARITY	TOGGLE	F	Signal Polarity
CONDIT	TWOPARAM	F	1.50000E+001	0.00000E+000	Conditionin&g	Time(s)	E(V)
DELAY	TWOPARAM	F	5.00000E+000	0.00000E+000	Init. De&lay	Time(s)	Stab.(mV/s)
EQDELAY	QUANT	0.00000E+000	Equil. &Time (s)
IRCOMP	SELECTOR	0	IRCom&p
PFCOR	QUANT	5.00000E+001	PF Corr. (ohm)
SAMPLINGMODE	SELECTOR	1	Sampling &Mode
EOC	QUANT	0	Open Circuit (V)
PSTATMODEL	IQUANT	5	Pstat Model
PSTATSECTION	LABEL	REF3000-21108	Pstat Section
PSTATSERIALNO	LABEL	21108	Pstat Serial Number
CTRLMODE	IQUANT	1	Control Mode
ELECTROMETER	IQUANT	0	RE=0 or CS=1
IESTAB	IQUANT	2	I/E Stability
CASPEED	IQUANT	4	Control Amp Speed
CONVENTION	IQUANT	1	Current Convention
ICHRANGE	IQUANT	2	Ich Range
ICHRANGEMODE	TOGGLE	F	Ich Auto Range
ICHOFFSETENABLE	TOGGLE	F	Ich Offset Enable
ICHOFFSET	QUANT	0	Ich Offset (V)
ICHFILTER	IQUANT	1	Ich Filter
VCHRANGE	IQUANT	2	Vch Range
VCHRANGEMODE	TOGGLE	F	Vch Auto Range
VCHOFFSETENABLE	TOGGLE	F	Vch Offset Enable
VCHOFFSET	QUANT	0	Vch Offset (V)
VCHFILTER	IQUANT	1	Vch Filter
ACHRANGE	IQUANT	2	Ach Range
ACHOFFSETENABLE	TOGGLE	F	Ach Offset Enable
ACHOFFSET	QUANT	0	Ach Offset (V)
ACHFILTER	IQUANT	0	Ach Filter
IERANGELOWERLIMIT	IQUANT	2	I/E Range Lower Limit
IERANGEMODE	TOGGLE	F	I/E AutoRange
IERANGE	IQUANT	10	I/E Range
POSFEEDENABLE	TOGGLE	F	Positive Feedback IR Comp
POSFEEDRESISTANCE	QUANT	0	Positive Feedback Resistance (ohm)
ACHSELECT	IQUANT	0	Ach Select
SENSECABLEID	IQUANT	14	Sense Cable ID
PWRCABLEID	IQUANT	7	Power Cable ID
DCCALDATE	LABEL	11/9/2022	DC Calibration Date
ACCALDATE	LABEL	11/9/2022	AC Calibration Date
THERMOSELECT	IQUANT	1	Thermo Select
FRAMEWORKVERSION	LABEL	7.8.2	Framework Version
INSTRUMENTVERSION	LABEL	4.40	Instrument Version
COMPLIANCEVOLTAGE	IQUANT	0	Compliance Voltage
CURVE1	TABLE
	Pt	T	Vf	Im	Vu	Sig	Ach	IERange	Over	Temp
	#	s	V vs. Ref.	A	V	V	V	#	bits	deg C
	0	0.001117	4.98553E-001	1.08457E-005	0.00000E+000	5.00000E-001	-8.72129E-004	10	..........a	-327.74
	32	0.03685	4.66483E-001	-7.20103E-006	0.00000E+000	4.67850E-001	-7.43558E-004	10	..........a	-327.74
	64	0.072583	4.34353E-001	-1.24454E-005	0.00000E+000	4.35700E-001	-7.72129E-004	10	..........a	-327.74
	96	0.108317	4.02053E-001	-1.52218E-005	0.00000E+000	4.03500E-001	-8.29272E-004	10	..........a	-327.74
	128	0.14405	3.69929E-001	-1.59930E-005	0.00000E+000	3.71350E-001	-8.57844E-004	10	..........a	-327.74
	160	0.179783	3.37768E-001	-2.00034E-005	0.00000E+000	3.39200E-001	-7.29272E-004	10	..........a	-327.74
	192	0.215517	3.05668E-001	-1.91550E-005	0.00000E+000	3.07050E-001	-8.29272E-004	10	..........a	-327.74
	224	0.25125	2.73529E-001	-1.93864E-005	0.00000E+000	2.74900E-001	-7.72129E-004	10	..........a	-327.74
	256	0.286983	2.41329E-001	-2.10831E-005	0.00000E+000	2.42700E-001	-9.00701E-004	10	..........a	-327.74
	288	0.322717	2.09229E-001	-2.15458E-005	0.00000E+000	2.10550E-001	-8.57844E-004	10	..........a	-327.74
	320	0.35845	1.77083E-001	-2.06204E-005	0.00000E+000	1.78400E-001	-8.14986E-004	10	..........a	-327.74
	352	0.394183	1.44976E-001	-2.27027E-005	0.00000E+000	1.46250E-001	-7.43558E-004	10	..........a	-327.74
	384	0.429917	1.12845E-001	-2.20086E-005	0.00000E+000	1.14100E-001	-8.57844E-004	10	..........a	-327.74
	416	0.46565	8.06141E-002	-2.22399E-005	0.00000E+000	8.19000E-002	-8.43558E-004	10	..........a	-327.74
	448	0.501383	4.85064E-002	-2.23942E-005	0.00000E+000	4.97500E-002	-7.86415E-004	10	..........a	-327.74
	480	0.537117	1.63525E-002	-2.33197E-005	0.00000E+000	1.76000E-002	-8.43558E-004	10	..........a	-327.74
	512	0.57285	-1.57705E-002	-2.28569E-005	0.00000E+000	-1.45500E-002	-8.29272E-004	10	..........a	-327.74
	544	0.608583	-4.79398E-002	-2.20086E-005	0.00000E+000	-4.67000E-002	-8.00701E-004	10	..........a	-327.74
	576	0.644317	-8.01628E-002	-2.35510E-005	0.00000E+000	-7.89000E-002	-8.00701E-004	10	..........a	-327.74
	608	0.68005	-1.12255E-001	-2.33197E-005	0.00000E+000	-1.11050E-001	-8.14986E-004	10	..........a	-327.74
	640	0.715783	-1.44332E-001	-2.27798E-005	0.00000E+000	-1.43200E-001	-8.29272E-004	10	..........a	-327.74
	672	0.751517	-1.76517E-001	-2.38595E-005	0.00000E+000	-1.75350E-001	-8.14986E-004	10	..........a	-327.74
	704	0.78725	-2.08647E-001	-2.53248E-005	0.00000E+000	-2.07500E-001	-8.72129E-004	10	..........a	-327.74
	736	0.822983	-2.40878E-001	-2.65588E-005	0.00000E+000	-2.39700E-001	-8.00701E-004	10	..........a	-327.74
	768	0.858717	-2.72932E-001	-2.82555E-005	0.00000E+000	-2.71850E-001	-8.57844E-004	10	..........a	-327.74
	800	0.89445	-3.05132E-001	-2.97980E-005	0.00000E+000	-3.04000E-001	-8.14986E-004	10	..........a	-327.74
	832	0.930183	-3.37217E-001	-3.42711E-005	0.00000E+000	-3.36150E-001	-8.29272E-004	10	..........a	-327.74
	864	0.96592	-3.69517E-001	-4.01324E-005	0.00000E+000	-3.68300E-001	-8.57844E-004	10	..........a	-327.74
	896	1.00165	-4.01601E-001	-4.90786E-005	0.00000E+000	-4.00500E-001	-7.29272E-004	10	..........a	-327.74
	928	1.03738	-4.33786E-001	-6.75109E-005	0.00000E+000	-4.32650E-001	-8.72129E-004	10	..........a	-327.74
	960	1.07312	-4.65809E-001	-1.26433E-004	0.00000E+000	-4.64800E-001	-8.43558E-004	10	..........a	-327.74
	992	1.10885	-4.98055E-001	-2.85614E-004	0.00000E+000	-4.96950E-001	-8.43558E-004	10	..........a	-327.74
	1024	1.14458	-5.30109E-001	-5.80993E-004	0.00000E+000	-5.29100E-001	-8.00701E-004	10	..........a	-327.74
	1056	1.18032	-5.62347E-001	-8.12207E-004	0.00000E+000	-5.61300E-001	-8.00701E-004	10	..........a	-327.74
	1088	1.21605	-5.94486E-001	-7.38940E-004	0.00000E+000	-5.93450E-001	-8.00701E-004	10	..........a	-327.74
	1120	1.25178	-6.26663E-001	-5.80993E-004	0.00000E+000	-6.25600E-001	-9.00701E-004	10	..........a	-327.74
	1152	1.28752	-6.58694E-001	-4.93613E-004	0.00000E+000	-6.57750E-001	-8.86415E-004	10	..........a	-327.74
	1184	1.32325	-6.90855E-001	-4.36080E-004	0.00000E+000	-6.89900E-001	-7.57844E-004	10	..........a	-327.74
	1216	1.35898	-7.23094E-001	-3.96593E-004	0.00000E+000	-7.22100E-001	-8.29272E-004	10	..........a	-327.74
	1248	1.39472	-7.55171E-001	-3.64356E-004	0.00000E+000	-7.54250E-001	-8.14986E-004	10	..........a	-327.74
	1280	1.43045	-7.87324E-001	-3.38366E-004	0.00000E+000	-7.86400E-001	-7.86415E-004	10	..........a	-327.74
	1312	1.46618	-8.19394E-001	-3.18468E-004	0.00000E+000	-8.18550E-001	-7.86415E-004	10	..........a	-327.74
	1344	1.50192	-8.51517E-001	-3.01578E-004	0.00000E+000	-8.50700E-001	-8.00701E-004	10	..........a	-327.74
	1376	1.53765	-8.83793E-001	-2.89161E-004	0.00000E+000	-8.82900E-001	-8.57844E-004	10	..........a	-327.74
	1408	1.57338	-9.15871E-001	-2.76513E-004	0.00000E+000	-9.15050E-001	-9.00701E-004	10	..........a	-327.74
	1440	1.60912	-9.47978E-001	-2.65176E-004	0.00000E+000	-9.47200E-001	-8.43558E-004	10	..........a	-327.74
	1472	1.64485	-9.80186E-001	-2.58312E-004	0.00000E+000	-9.79350E-001	-8.57844E-004	10	..........a	-327.74
	1504	1.68058	-9.88224E-001	-2.33787E-004	0.00000E+000	-9.87400E-001	-8.14986E-004	10	..........a	-327.74
	1536	1.71632	-9.56117E-001	-2.16126E-004	0.00000E+000	-9.55250E-001	-8.86415E-004	10	..........a	-327.74
	1568	1.75205	-9.23840E-001	-2.07180E-004	0.00000E+000	-9.23100E-001	-8.43558E-004	10	..........a	-327.74
	1600	1.78778	-8.91763E-001	-1.98234E-004	0.00000E+000	-8.90900E-001	-8.72129E-004	10	..........a	-327.74
	1632	1.82352	-8.59586E-001	-1.90599E-004	0.00000E+000	-8.58750E-001	-8.72129E-004	10	..........a	-327.74
	1664	1.85925	-8.27463E-001	-1.85354E-004	0.00000E+000	-8.26600E-001	-8.00701E-004	10	..........a	-327.74
	1696	1.89498	-7.95401E-001	-1.80881E-004	0.00000E+000	-7.94450E-001	-8.43558E-004	10	..........a	-327.74
	1728	1.93072	-7.63224E-001	-1.73863E-004	0.00000E+000	-7.62300E-001	-8.29272E-004	10	..........a	-327.74
	1760	1.96645	-7.31024E-001	-1.67693E-004	0.00000E+000	-7.30100E-001	-7.86415E-004	10	..........a	-327.74
	1792	2.00218	-6.98955E-001	-1.61523E-004	0.00000E+000	-6.97950E-001	-8.86415E-004	10	..........a	-327.74
	1824	2.03792	-6.66794E-001	-1.54043E-004	0.00000E+000	-6.65800E-001	-7.72129E-004	10	..........a	-327.74
	1856	2.07365	-6.34701E-001	-1.41009E-004	0.00000E+000	-6.33650E-001	-8.43558E-004	10	..........a	-327.74
	1888	2.10938	-6.02555E-001	-1.12782E-004	0.00000E+000	-6.01500E-001	-8.29272E-004	10	..........a	-327.74
	1920	2.14512	-5.70332E-001	-3.76645E-005	0.00000E+000	-5.69300E-001	-7.43558E-004	10	..........a	-327.74
	1952	2.18085	-5.38147E-001	1.88536E-004	0.00000E+000	-5.37150E-001	-8.57844E-004	10	..........a	-327.74
	1984	2.21658	-5.06040E-001	5.37285E-004	0.00000E+000	-5.05000E-001	-8.86415E-004	10	..........a	-327.74
	2016	2.25232	-4.73917E-001	5.59650E-004	0.00000E+000	-4.72850E-001	-8.86415E-004	10	..........a	-327.74
	2048	2.28805	-4.41786E-001	4.22758E-004	0.00000E+000	-4.40700E-001	-8.29272E-004	10	..........a	-327.74
	2080	2.32378	-4.09586E-001	3.21110E-004	0.00000E+000	-4.08500E-001	-8.43558E-004	10	..........a	-327.74
	2112	2.35952	-3.77478E-001	2.58178E-004	0.00000E+000	-3.76350E-001	-8.29272E-004	10	..........a	-327.74
	2144	2.39525	-3.45301E-001	2.17303E-004	0.00000E+000	-3.44200E-001	-7.86415E-004	10	..........a	-327.74
	2176	2.43098	-3.13171E-001	1.89230E-004	0.00000E+000	-3.12050E-001	-8.86415E-004	10	..........a	-327.74
	2208	2.46672	-2.81063E-001	1.68253E-004	0.00000E+000	-2.79900E-001	-8.57844E-004	10	..........a	-327.74
	2240	2.50245	-2.48855E-001	1.52057E-004	0.00000E+000	-2.47700E-001	-7.86415E-004	10	..........a	-327.74
	2272	2.53818	-2.16640E-001	1.39255E-004	0.00000E+000	-2.15550E-001	-8.72129E-004	10	..........a	-327.74
	2304	2.57392	-1.84517E-001	1.26607E-004	0.00000E+000	-1.83400E-001	-8.86415E-004	10	..........a	-327.74
	2336	2.60965	-1.52401E-001	1.17506E-004	0.00000E+000	-1.51250E-001	-9.00701E-004	10	..........a	-327.74
	2368	2.64538	-1.20255E-001	1.08869E-004	0.00000E+000	-1.19100E-001	-9.57844E-004	10	..........a	-327.74
	2400	2.68112	-8.81321E-002	1.02236E-004	0.00000E+000	-8.69000E-002	-8.14986E-004	10	..........a	-327.74
	2432	2.71685	-5.59398E-002	9.66831E-005	0.00000E+000	-5.47500E-002	-8.57844E-004	10	..........a	-327.74
	2464	2.75258	-2.38859E-002	8.96650E-005	0.00000E+000	-2.26000E-002	-8.14986E-004	10	..........a	-327.74
	2496	2.78832	8.30639E-003	8.61173E-005	0.00000E+000	9.55001E-003	-9.00701E-004	10	..........a	-327.74
	2528	2.82405	4.04833E-002	8.12586E-005	0.00000E+000	4.17000E-002	-8.57844E-004	10	..........a	-327.74
	2560	2.85978	7.25910E-002	7.78652E-005	0.00000E+000	7.39000E-002	-8.86415E-004	10	..........a	-327.74
	2592	2.89552	1.04822E-001	7.33921E-005	0.00000E+000	1.06050E-001	-9.29272E-004	10	..........a	-327.74
	2624	2.93125	1.36945E-001	6.88419E-005	0.00000E+000	1.38200E-001	-8.57844E-004	10	..........a	-327.74
	2656	2.96698	1.69091E-001	6.29805E-005	0.00000E+000	1.70350E-001	-8.57844E-004	10	..........a	-327.74
	2688	3.00272	2.01214E-001	6.10525E-005	0.00000E+000	2.02500E-001	-9.14986E-004	10	..........a	-327.74
	2720	3.03845	2.33329E-001	5.65794E-005	0.00000E+000	2.34700E-001	-8.43558E-004	10	..........a	-327.74
	2752	3.07418	2.65491E-001	5.53454E-005	0.00000E+000	2.66850E-001	-8.72129E-004	10	..........a	-327.74
	2784	3.10992	2.97583E-001	5.31860E-005	0.00000E+000	2.99000E-001	-9.29272E-004	10	..........a	-327.74
	2816	3.14565	3.29768E-001	5.01011E-005	0.00000E+000	3.31150E-001	-8.86415E-004	10	..........a	-327.74
	2848	3.18138	3.61899E-001	4.84815E-005	0.00000E+000	3.63300E-001	-8.29272E-004	10	..........a	-327.74
	2880	3.21712	3.94053E-001	4.66306E-005	0.00000E+000	3.95500E-001	-8.72129E-004	10	..........a	-327.74
	2912	3.25285	4.26176E-001	4.50110E-005	0.00000E+000	4.27650E-001	-8.57844E-004	10	..........a	-327.74
	2944	3.28858	4.58383E-001	4.35456E-005	0.00000E+000	4.59800E-001	-9.14986E-004	10	..........a	-327.74
	2976	3.32432	4.90537E-001	4.40855E-005	0.00000E+000	4.91950E-001	-8.86415E-004	10	..........a	-327.74
	2984	3.33325	4.98591E-001	4.27744E-005	0.00000E+000	5.00000E-001	-8.86415E-004	10	..........a	-327.74
CURVE2	TABLE
	Pt	T	Vf	Im	Vu	Sig	Ach	IERange	Over	Temp
	#	s	V vs. Ref.	A	V	V	V	#	bits	deg C
	2985	3.33437	4.98591E-001	4.07692E-005	0.00000E+000	5.00000E-001	-7.72129E-004	10	..........a	-327.74