File: data/02-SI/Figures_S9_S11_RDE/18btmapaq-rde/1mkcl-18btmapaq-nitrogen-200mvpers.DTA
EXPLAIN
TAG	CV
TITLE	LABEL	Cyclic Voltammetry	Test &Identifier
DATE	LABEL	1/31/2023	Date
TIME	LABEL	15:20:25	Time
NOTES	NOTES	1	&Notes...

PSTAT	PSTAT	REF3000-21108	Potentiostat
VINIT	POTEN	5.00000E-001	F	Initial &E (V)
VLIMIT1	POTEN	-1.00000E+000	F	Scan Limit &1 (V)
VLIMIT2	POTEN	5.00000E-001	F	Scan Limit &2 (V)
VFINAL	POTEN	5.00000E-001	F	Final &E (V)
SCANRATE	QUANT	2.00000E+002	&Scan Rate (mV/s)
STEPSIZE	QUANT	1.00000E+000	St&ep Size (mV)
CYCLES	IQUANT	1	C&ycles (#)
IMODE	SELECTOR	1	I/E Range &Mode
IRANGE	QUANT	1.00000E+001	&Max Current (mA)
AREA	QUANT	1.00000E+000	Electrode &Area (cm^2)
ELECTRODETYPE	SELECTOR	0	Electrode Type
STRIPPING	TOGGLE	F	Used for Stripping
POLARITY	TOGGLE	F	Signal Polarity
CONDIT	TWOPARAM	F	1.50000E+001	0.00000E+000	Conditionin&g	Time(s)	E(V)
DELAY	TWOPARAM	F	5.00000E+000	0.00000E+000	Init. De&lay	Time(s)	Stab.(mV/s)
EQDELAY	QUANT	0.00000E+000	Equil. &Time (s)
IRCOMP	SELECTOR	0	IRCom&p
PFCOR	QUANT	5.00000E+001	PF Corr. (ohm)
SAMPLINGMODE	SELECTOR	1	Sampling &Mode
EOC	QUANT	0	Open Circuit (V)
PSTATMODEL	IQUANT	5	Pstat Model
PSTATSECTION	LABEL	REF3000-21108	Pstat Section
PSTATSERIALNO	LABEL	21108	Pstat Serial Number
CTRLMODE	IQUANT	1	Control Mode
ELECTROMETER	IQUANT	0	RE=0 or CS=1
IESTAB	IQUANT	2	I/E Stability
CASPEED	IQUANT	4	Control Amp Speed
CONVENTION	IQUANT	1	Current Convention
ICHRANGE	IQUANT	2	Ich Range
ICHRANGEMODE	TOGGLE	F	Ich Auto Range
ICHOFFSETENABLE	TOGGLE	F	Ich Offset Enable
ICHOFFSET	QUANT	0	Ich Offset (V)
ICHFILTER	IQUANT	2	Ich Filter
VCHRANGE	IQUANT	2	Vch Range
VCHRANGEMODE	TOGGLE	F	Vch Auto Range
VCHOFFSETENABLE	TOGGLE	F	Vch Offset Enable
VCHOFFSET	QUANT	0	Vch Offset (V)
VCHFILTER	IQUANT	2	Vch Filter
ACHRANGE	IQUANT	2	Ach Range
ACHOFFSETENABLE	TOGGLE	F	Ach Offset Enable
ACHOFFSET	QUANT	0	Ach Offset (V)
ACHFILTER	IQUANT	0	Ach Filter
IERANGELOWERLIMIT	IQUANT	2	I/E Range Lower Limit
IERANGEMODE	TOGGLE	F	I/E AutoRange
IERANGE	IQUANT	10	I/E Range
POSFEEDENABLE	TOGGLE	F	Positive Feedback IR Comp
POSFEEDRESISTANCE	QUANT	0	Positive Feedback Resistance (ohm)
ACHSELECT	IQUANT	0	Ach Select
SENSECABLEID	IQUANT	14	Sense Cable ID
PWRCABLEID	IQUANT	7	Power Cable ID
DCCALDATE	LABEL	11/9/2022	DC Calibration Date
ACCALDATE	LABEL	11/9/2022	AC Calibration Date
THERMOSELECT	IQUANT	1	Thermo Select
FRAMEWORKVERSION	LABEL	7.8.2	Framework Version
INSTRUMENTVERSION	LABEL	4.40	Instrument Version
COMPLIANCEVOLTAGE	IQUANT	0	Compliance Voltage
CURVE1	TABLE
	Pt	T	Vf	Im	Vu	Sig	Ach	IERange	Over	Temp
	#	s	V vs. Ref.	A	V	V	V	#	bits	deg C
	0	0.005	4.98798E-001	4.61625E-006	0.00000E+000	5.00000E-001	-7.59272E-004	10	..........a	-327.74
	31	0.16	4.67829E-001	1.54709E-007	0.00000E+000	4.69000E-001	-7.12606E-004	10	..........a	-327.74
	62	0.315	4.36804E-001	-4.63558E-007	0.00000E+000	4.38000E-001	-7.75939E-004	10	..........a	-327.74
	93	0.47	4.05854E-001	-7.64336E-007	0.00000E+000	4.07000E-001	-7.89272E-004	10	..........a	-327.74
	124	0.625	3.74844E-001	-1.38260E-006	0.00000E+000	3.76000E-001	-7.45939E-004	10	..........a	-327.74
	155	0.78	3.43864E-001	-2.41862E-006	0.00000E+000	3.45000E-001	-7.69272E-004	10	..........a	-327.74
	186	0.935	3.12929E-001	-2.16797E-006	0.00000E+000	3.14000E-001	-7.45939E-004	10	..........a	-327.74
	217	1.09	2.81876E-001	-2.25152E-006	0.00000E+000	2.83000E-001	-7.65939E-004	10	..........a	-327.74
	248	1.245	2.50891E-001	-2.18468E-006	0.00000E+000	2.52000E-001	-7.75939E-004	10	..........a	-327.74
	279	1.4	2.19911E-001	-2.06771E-006	0.00000E+000	2.21000E-001	-7.29272E-004	10	..........a	-327.74
	310	1.555	1.88966E-001	-2.23481E-006	0.00000E+000	1.90000E-001	-7.79272E-004	10	..........a	-327.74
	341	1.71	1.57931E-001	-2.81965E-006	0.00000E+000	1.59000E-001	-7.09272E-004	10	..........a	-327.74
	372	1.865	1.26933E-001	-2.50217E-006	0.00000E+000	1.28000E-001	-7.45939E-004	10	..........a	-327.74
	403	2.02	9.59261E-002	-2.76952E-006	0.00000E+000	9.70000E-002	-7.45939E-004	10	..........a	-327.74
	434	2.175	6.49894E-002	-2.53559E-006	0.00000E+000	6.60000E-002	-7.59272E-004	10	..........a	-327.74
	465	2.33	3.39877E-002	-2.66926E-006	0.00000E+000	3.50000E-002	-7.09272E-004	10	..........a	-327.74
	496	2.485	2.94606E-003	-2.66926E-006	0.00000E+000	4.00001E-003	-7.42605E-004	10	..........a	-327.74
	527	2.64	-2.79273E-002	-2.76952E-006	0.00000E+000	-2.70000E-002	-7.29272E-004	10	..........a	-327.74
	558	2.795	-5.90423E-002	-2.95333E-006	0.00000E+000	-5.80000E-002	-7.25939E-004	10	..........a	-327.74
	589	2.95	-8.99589E-002	-2.95333E-006	0.00000E+000	-8.90000E-002	-7.39272E-004	10	..........a	-327.74
	620	3.105	-1.21011E-001	-3.33766E-006	0.00000E+000	-1.20000E-001	-7.49272E-004	10	..........a	-327.74
	651	3.26	-1.51986E-001	-3.60502E-006	0.00000E+000	-1.51000E-001	-7.19272E-004	10	..........a	-327.74
	682	3.415	-1.82976E-001	-3.87238E-006	0.00000E+000	-1.82000E-001	-7.49272E-004	10	..........a	-327.74
	713	3.57	-2.13939E-001	-4.69116E-006	0.00000E+000	-2.13000E-001	-6.95939E-004	10	..........a	-327.74
	744	3.725	-2.44851E-001	-6.22847E-006	0.00000E+000	-2.44000E-001	-7.22606E-004	10	..........a	-327.74
	775	3.88	-2.75862E-001	-8.81851E-006	0.00000E+000	-2.75000E-001	-7.85939E-004	10	..........a	-327.74
	806	4.035	-3.06899E-001	-1.18096E-005	0.00000E+000	-3.06000E-001	-7.65939E-004	10	..........a	-327.74
	837	4.19	-3.37852E-001	-1.54189E-005	0.00000E+000	-3.37000E-001	-6.95939E-004	10	..........a	-327.74
	868	4.345	-3.68859E-001	-1.70398E-005	0.00000E+000	-3.68000E-001	-7.42605E-004	10	..........a	-327.74
	899	4.5	-3.99857E-001	-1.83599E-005	0.00000E+000	-3.99000E-001	-7.49272E-004	10	..........a	-327.74
	930	4.655	-4.30877E-001	-2.08496E-005	0.00000E+000	-4.30000E-001	-7.52606E-004	10	..........a	-327.74
	961	4.81	-4.61871E-001	-4.28566E-005	0.00000E+000	-4.61000E-001	-7.05939E-004	10	..........a	-327.74
	992	4.965	-4.92837E-001	-1.15962E-004	0.00000E+000	-4.92000E-001	-7.22606E-004	10	..........a	-327.74
	1023	5.12	-5.23852E-001	-2.77213E-004	0.00000E+000	-5.23000E-001	-7.42605E-004	10	..........a	-327.74
	1054	5.275	-5.54796E-001	-4.03022E-004	0.00000E+000	-5.54000E-001	-7.42605E-004	10	..........a	-327.74
	1085	5.43	-5.85824E-001	-3.30802E-004	0.00000E+000	-5.85000E-001	-7.62605E-004	10	..........a	-327.74
	1116	5.585	-6.16706E-001	-2.59350E-004	0.00000E+000	-6.16000E-001	-7.65939E-004	10	..........a	-327.74
	1147	5.74	-6.47769E-001	-2.20616E-004	0.00000E+000	-6.47000E-001	-7.65939E-004	10	..........a	-327.74
	1178	5.895	-6.78726E-001	-1.95769E-004	0.00000E+000	-6.78000E-001	-7.25939E-004	10	..........a	-327.74
	1209	6.05	-7.09741E-001	-1.77756E-004	0.00000E+000	-7.09000E-001	-7.42605E-004	10	..........a	-327.74
	1240	6.205	-7.40727E-001	-1.64705E-004	0.00000E+000	-7.40000E-001	-7.62605E-004	10	..........a	-327.74
	1271	6.36	-7.71701E-001	-1.54245E-004	0.00000E+000	-7.71000E-001	-7.22606E-004	10	..........a	-327.74
	1302	6.515	-8.02672E-001	-1.45673E-004	0.00000E+000	-8.02000E-001	-7.25939E-004	10	..........a	-327.74
	1333	6.67	-8.33621E-001	-1.38755E-004	0.00000E+000	-8.33000E-001	-7.35939E-004	10	..........a	-327.74
	1364	6.825	-8.64617E-001	-1.32773E-004	0.00000E+000	-8.64000E-001	-7.05939E-004	10	..........a	-327.74
	1395	6.98	-8.95616E-001	-1.27793E-004	0.00000E+000	-8.95000E-001	-7.05939E-004	10	..........a	-327.74
	1426	7.135	-9.26674E-001	-1.22981E-004	0.00000E+000	-9.26000E-001	-6.99272E-004	10	..........a	-327.74
	1457	7.29	-9.57527E-001	-1.19622E-004	0.00000E+000	-9.57000E-001	-7.25939E-004	10	..........a	-327.74
	1488	7.445	-9.88567E-001	-1.15979E-004	0.00000E+000	-9.88000E-001	-7.12606E-004	10	..........a	-327.74
	1519	7.6	-9.81566E-001	-1.08242E-004	0.00000E+000	-9.81000E-001	-7.55939E-004	10	..........a	-327.74
	1550	7.755	-9.50582E-001	-1.04132E-004	0.00000E+000	-9.50000E-001	-7.22606E-004	10	..........a	-327.74
	1581	7.91	-9.19617E-001	-1.00305E-004	0.00000E+000	-9.19000E-001	-7.69272E-004	10	..........a	-327.74
	1612	8.065	-8.88611E-001	-9.67293E-005	0.00000E+000	-8.88000E-001	-7.49272E-004	10	..........a	-327.74
	1643	8.22	-8.57604E-001	-9.44902E-005	0.00000E+000	-8.57000E-001	-7.49272E-004	10	..........a	-327.74
	1674	8.375	-8.26709E-001	-9.24181E-005	0.00000E+000	-8.26000E-001	-7.69272E-004	10	..........a	-327.74
	1705	8.53	-7.95687E-001	-9.07806E-005	0.00000E+000	-7.95000E-001	-7.09272E-004	10	..........a	-327.74
	1736	8.685	-7.64729E-001	-8.87754E-005	0.00000E+000	-7.64000E-001	-7.22606E-004	10	..........a	-327.74
	1767	8.84	-7.33714E-001	-8.75556E-005	0.00000E+000	-7.33000E-001	-7.39272E-004	10	..........a	-327.74
	1798	8.995	-7.02756E-001	-8.63524E-005	0.00000E+000	-7.02000E-001	-7.42605E-004	10	..........a	-327.74
	1829	9.15	-6.71814E-001	-8.47316E-005	0.00000E+000	-6.71000E-001	-7.19272E-004	10	..........a	-327.74
	1860	9.305	-6.40681E-001	-8.15400E-005	0.00000E+000	-6.40000E-001	-7.39272E-004	10	..........a	-327.74
	1891	9.46	-6.09819E-001	-7.61594E-005	0.00000E+000	-6.09000E-001	-7.32606E-004	10	..........a	-327.74
	1922	9.615	-5.78792E-001	-5.70767E-005	0.00000E+000	-5.78000E-001	-7.55939E-004	10	..........a	-327.74
	1953	9.77	-5.47841E-001	2.06578E-005	0.00000E+000	-5.47000E-001	-7.45939E-004	10	..........a	-327.74
	1984	9.925	-5.16816E-001	2.00674E-004	0.00000E+000	-5.16000E-001	-7.19272E-004	10	..........a	-327.74
	2015	10.08	-4.85866E-001	2.41212E-004	0.00000E+000	-4.85000E-001	-7.72606E-004	10	..........a	-327.74
	2046	10.235	-4.54869E-001	1.89511E-004	0.00000E+000	-4.54000E-001	-7.39272E-004	10	..........a	-327.74
	2077	10.39	-4.23846E-001	1.41320E-004	0.00000E+000	-4.23000E-001	-7.42605E-004	10	..........a	-327.74
	2108	10.545	-3.92932E-001	1.08268E-004	0.00000E+000	-3.92000E-001	-7.75939E-004	10	..........a	-327.74
	2139	10.7	-3.61859E-001	8.72968E-005	0.00000E+000	-3.61000E-001	-7.65939E-004	10	..........a	-327.74
	2170	10.855	-3.30917E-001	7.27258E-005	0.00000E+000	-3.30000E-001	-7.55939E-004	10	..........a	-327.74
	2201	11.01	-2.99884E-001	6.16973E-005	0.00000E+000	-2.99000E-001	-7.92605E-004	10	..........a	-327.74
	2232	11.165	-2.68894E-001	5.36932E-005	0.00000E+000	-2.68000E-001	-7.29272E-004	10	..........a	-327.74
	2263	11.32	-2.37934E-001	4.71764E-005	0.00000E+000	-2.37000E-001	-7.35939E-004	10	..........a	-327.74
	2294	11.475	-2.06959E-001	4.18125E-005	0.00000E+000	-2.06000E-001	-7.69272E-004	10	..........a	-327.74
	2325	11.63	-1.75987E-001	3.73844E-005	0.00000E+000	-1.75000E-001	-7.42605E-004	10	..........a	-327.74
	2356	11.785	-1.44946E-001	3.39755E-005	0.00000E+000	-1.44000E-001	-7.69272E-004	10	..........a	-327.74
	2387	11.94	-1.14031E-001	3.13354E-005	0.00000E+000	-1.13000E-001	-7.89272E-004	10	..........a	-327.74
	2418	12.095	-8.29939E-002	2.92968E-005	0.00000E+000	-8.20000E-002	-8.12605E-004	10	..........a	-327.74
	2449	12.25	-5.19273E-002	2.85281E-005	0.00000E+000	-5.10000E-002	-7.62605E-004	10	..........a	-327.74
	2480	12.405	-2.10656E-002	2.83276E-005	0.00000E+000	-2.00000E-002	-7.59272E-004	10	..........a	-327.74
	2511	12.56	1.00027E-002	2.85114E-005	0.00000E+000	1.10000E-002	-7.72606E-004	10	..........a	-327.74
	2542	12.715	4.09661E-002	2.74587E-005	0.00000E+000	4.20000E-002	-7.99272E-004	10	..........a	-327.74
	2573	12.87	7.19444E-002	2.47016E-005	0.00000E+000	7.30000E-002	-7.85939E-004	10	..........a	-327.74
	2604	13.025	1.02886E-001	2.18442E-005	0.00000E+000	1.04000E-001	-7.35939E-004	10	..........a	-327.74
	2635	13.18	1.33944E-001	1.91204E-005	0.00000E+000	1.35000E-001	-7.69272E-004	10	..........a	-327.74
	2666	13.335	1.64963E-001	1.65805E-005	0.00000E+000	1.66000E-001	-7.99272E-004	10	..........a	-327.74
	2697	13.49	1.95944E-001	1.47090E-005	0.00000E+000	1.97000E-001	-7.49272E-004	10	..........a	-327.74
	2728	13.645	2.26878E-001	1.32386E-005	0.00000E+000	2.28000E-001	-7.29272E-004	10	..........a	-327.74
	2759	13.8	2.57859E-001	1.16344E-005	0.00000E+000	2.59000E-001	-7.12606E-004	10	..........a	-327.74
	2790	13.955	2.88903E-001	1.11164E-005	0.00000E+000	2.90000E-001	-7.99272E-004	10	..........a	-327.74
	2821	14.11	3.19879E-001	1.02976E-005	0.00000E+000	3.21000E-001	-7.62605E-004	10	..........a	-327.74
	2852	14.265	3.50866E-001	1.01305E-005	0.00000E+000	3.52000E-001	-7.29272E-004	10	..........a	-327.74
	2883	14.42	3.81821E-001	9.87987E-006	0.00000E+000	3.83000E-001	-7.82606E-004	10	..........a	-327.74
	2914	14.575	4.12809E-001	8.87728E-006	0.00000E+000	4.14000E-001	-7.39272E-004	10	..........a	-327.74
	2945	14.73	4.43846E-001	8.34256E-006	0.00000E+000	4.45000E-001	-8.22606E-004	10	..........a	-327.74
	2976	14.885	4.74749E-001	7.84126E-006	0.00000E+000	4.76000E-001	-7.62605E-004	10	..........a	-327.74
	3000	15.005	4.98794E-001	7.30655E-006	0.00000E+000	5.00000E-001	-7.35939E-004	10	..........a	-327.74
CURVE2	TABLE
	Pt	T	Vf	Im	Vu	Sig	Ach	IERange	Over	Temp
	#	s	V vs. Ref.	A	V	V	V	#	bits	deg C
	3001	15.01	4.98784E-001	7.12274E-006	0.00000E+000	5.00000E-001	-7.45939E-004	10	..........a	-327.74